* Measurement data measured by REW V5.20.9
* Source:
* Format:
* Dated: 2022/08/25 23:21:28
* REW Settings:
*  C-weighting compensation: Off
*  Target level: 75.0 dB
* Note:
* Measurement: SSP L 7K
* Smoothing: 1/24 octave
* Frequency Step: 1/96 octave
* Start Frequency: 9.928 Hz
*
* Freq(Hz) SPL(dB) Phase(degrees)
9.928058 69.380 -29.0887
10.000000 69.394 -29.2823
10.072464 69.408 -29.5322
10.145453 69.421 -29.8424
10.218971 69.435 -30.2171
10.293022 69.454 -30.6697
10.367610 69.482 -31.2344
10.442738 69.512 -31.8730
10.518411 69.546 -32.5363
10.594631 69.581 -33.1726
10.671404 69.616 -33.7450
10.748734 69.651 -34.2855
10.826623 69.689 -34.8130
10.905077 69.729 -35.3441
10.984100 69.773 -35.8961
11.063695 69.822 -36.4702
11.143867 69.875 -37.0554
11.224621 69.931 -37.6544
11.305959 69.987 -38.2697
11.387886 70.040 -38.9054
11.470407 70.093 -39.5679
11.553527 70.146 -40.2485
11.637249 70.198 -40.9357
11.721577 70.248 -41.6172
11.806517 70.297 -42.2936
11.892071 70.344 -42.9711
11.978246 70.390 -43.6471
12.065045 70.437 -44.3194
12.152473 70.486 -44.9873
12.240536 70.535 -45.6532
12.329235 70.584 -46.3141
12.418578 70.633 -46.9667
12.508568 70.681 -47.6089
12.599211 70.728 -48.2427
12.690510 70.775 -48.8671
12.782471 70.822 -49.4810
12.875097 70.869 -50.0831
12.968395 70.916 -50.6733
13.062370 70.963 -51.2524
13.157025 71.012 -51.8212
13.252366 71.063 -52.3796
13.348398 71.117 -52.9259
13.445127 71.172 -53.4622
13.542556 71.228 -53.9910
13.640691 71.286 -54.5118
13.739536 71.345 -55.0231
13.839099 71.404 -55.5279
13.939383 71.463 -56.0290
14.040393 71.522 -56.5254
14.142136 71.580 -57.0164
14.244616 71.637 -57.5029
14.347837 71.691 -57.9854
14.451808 71.742 -58.4632
14.556532 71.792 -58.9362
14.662014 71.842 -59.4046
14.768262 71.891 -59.8671
14.875278 71.938 -60.3245
14.983070 71.987 -60.7791
15.091644 72.040 -61.2313
15.201005 72.096 -61.6791
15.311157 72.153 -62.1274
15.422109 72.211 -62.5813
15.533863 72.271 -63.0375
15.646428 72.331 -63.4987
15.759809 72.386 -63.9703
15.874010 72.437 -64.4530
15.989040 72.485 -64.9455
16.104904 72.528 -65.4476
16.221605 72.567 -65.9611
16.339155 72.602 -66.4851
16.457554 72.635 -67.0150
16.576813 72.669 -67.5492
16.696936 72.701 -68.0893
16.817928 72.733 -68.6316
16.939798 72.764 -69.1736
17.062551 72.796 -69.7167
17.186193 72.825 -70.2610
17.310732 72.853 -70.8064
17.436172 72.878 -71.3527
17.562521 72.902 -71.9010
17.689787 72.923 -72.4521
17.817974 72.942 -73.0053
17.947090 72.961 -73.5592
18.077143 72.980 -74.1132
18.208138 72.999 -74.6677
18.340080 73.021 -75.2222
18.472980 73.046 -75.7741
18.606844 73.074 -76.3286
18.741676 73.106 -76.8919
18.877487 73.144 -77.4600
19.014280 73.185 -78.0446
19.152065 73.229 -78.6541
19.290850 73.276 -79.2853
19.430639 73.324 -79.9448
19.571442 73.372 -80.6383
19.713264 73.419 -81.3571
19.856115 73.464 -82.0933
20.000000 73.506 -82.8521
20.144928 73.545 -83.6084
20.290907 73.579 -84.3571
20.437943 73.610 -85.0942
20.586044 73.640 -85.7977
20.735220 73.668 -86.4700
20.885475 73.700 -87.1146
21.036821 73.739 -87.7221
21.189262 73.783 -88.3114
21.342808 73.839 -88.9057
21.497467 73.904 -89.4996
21.653246 73.974 -90.1425
21.810154 74.052 -90.8342
21.968201 74.131 -91.5915
22.127390 74.206 -92.4377
22.287735 74.276 -93.3544
22.449242 74.333 -94.3306
22.611917 74.379 -95.3642
22.775772 74.408 -96.3804
22.940815 74.420 -97.3911
23.107054 74.417 -98.3113
23.274498 74.395 -99.1265
23.443153 74.366 -99.8067
23.613033 74.331 -100.3142
23.784142 74.299 -100.6746
23.956491 74.280 -100.8856
24.130091 74.274 -100.9795
24.304947 74.292 -101.0232
24.481071 74.330 -101.0262
24.658470 74.385 -101.0874
24.837156 74.456 -101.2001
25.017136 74.532 -101.4262
25.198421 74.612 -101.7575
25.381020 74.685 -102.1850
25.564941 74.750 -102.7041
25.750195 74.804 -103.2575
25.936790 74.845 -103.8437
26.124741 74.877 -104.4065
26.314051 74.899 -104.9489
26.504732 74.918 -105.4497
26.696796 74.933 -105.9175
26.890253 74.950 -106.3662
27.085112 74.968 -106.8058
27.281382 74.987 -107.2602
27.479073 75.006 -107.7328
27.678198 75.024 -108.2360
27.878765 75.039 -108.7603
28.080786 75.050 -109.3055
28.284271 75.058 -109.8548
28.489231 75.063 -110.4054
28.695675 75.069 -110.9488
28.903616 75.077 -111.4871
29.113064 75.087 -112.0253
29.324028 75.101 -112.5703
29.536524 75.116 -113.1301
29.750557 75.132 -113.7079
29.966141 75.148 -114.3054
30.183289 75.162 -114.9147
30.402010 75.176 -115.5301
30.622314 75.190 -116.1407
30.844217 75.205 -116.7389
31.067726 75.222 -117.3207
31.292856 75.241 -117.8857
31.519617 75.262 -118.4378
31.748020 75.286 -118.9817
31.978081 75.313 -119.5243
32.209808 75.342 -120.0671
32.443211 75.373 -120.6116
32.678310 75.403 -121.1528
32.915108 75.434 -121.6879
33.153625 75.463 -122.2104
33.393871 75.491 -122.7203
33.635857 75.519 -123.2172
33.879597 75.546 -123.7065
34.125103 75.573 -124.1916
34.372387 75.599 -124.6758
34.621464 75.625 -125.1605
34.872345 75.648 -125.6432
35.125042 75.669 -126.1221
35.379574 75.689 -126.5935
35.635948 75.708 -127.0588
35.894180 75.726 -127.5204
36.154285 75.743 -127.9846
36.416275 75.760 -128.4612
36.680161 75.775 -128.9550
36.945961 75.787 -129.4704
37.213688 75.795 -130.0039
37.483353 75.801 -130.5460
37.754974 75.804 -131.0873
38.028561 75.808 -131.6168
38.304131 75.815 -132.1286
38.581699 75.825 -132.6264
38.861279 75.839 -133.1178
39.142883 75.857 -133.6148
39.426529 75.875 -134.1320
39.712231 75.892 -134.6747
40.000000 75.906 -135.2418
40.289856 75.917 -135.8262
40.581814 75.922 -136.4137
40.875885 75.922 -136.9898
41.172089 75.919 -137.5470
41.470440 75.915 -138.0836
41.770950 75.913 -138.6035
42.073643 75.915 -139.1155
42.378525 75.920 -139.6274
42.685616 75.928 -140.1392
42.994934 75.936 -140.6447
43.306492 75.945 -141.1332
43.620308 75.953 -141.5948
43.936401 75.964 -142.0261
44.254780 75.979 -142.4375
44.575470 75.998 -142.8507
44.898483 76.020 -143.2877
45.223835 76.041 -143.7599
45.551544 76.057 -144.2610
45.881630 76.066 -144.7676
46.214108 76.069 -145.2488
46.548996 76.069 -145.6828
46.886307 76.074 -146.0729
47.226067 76.088 -146.4517
47.568283 76.112 -146.8676
47.912983 76.142 -147.3592
48.260181 76.169 -147.9350
48.609894 76.186 -148.5692
48.962143 76.189 -149.2154
49.316940 76.179 -149.8298
49.674313 76.164 -150.3923
50.034271 76.148 -150.9115
50.396843 76.136 -151.4141
50.762039 76.128 -151.9255
51.129883 76.122 -152.4555
51.500389 76.116 -152.9967
51.873581 76.110 -153.5341
52.249481 76.108 -154.0577
52.628101 76.112 -154.5677
53.009464 76.120 -155.0705
53.393593 76.131 -155.5694
53.780506 76.144 -156.0598
54.170223 76.156 -156.5323
54.562763 76.170 -156.9816
54.958145 76.186 -157.4126
55.356396 76.205 -157.8403
55.757530 76.226 -158.2807
56.161572 76.243 -158.7407
56.568542 76.256 -159.2131
56.978462 76.261 -159.6821
57.391350 76.259 -160.1347
57.807232 76.252 -160.5705
58.226128 76.242 -161.0020
58.648056 76.230 -161.4452
59.073048 76.217 -161.9097
59.501114 76.200 -162.3937
59.932281 76.182 -162.8874
60.366577 76.164 -163.3793
60.804020 76.146 -163.8603
61.244629 76.132 -164.3246
61.688435 76.120 -164.7684
62.135452 76.113 -165.1923
62.585712 76.111 -165.6041
63.039234 76.114 -166.0159
63.496040 76.120 -166.4372
63.956161 76.128 -166.8698
64.419617 76.137 -167.3079
64.886421 76.145 -167.7449
65.356621 76.151 -168.1777
65.830215 76.155 -168.6049
66.307251 76.156 -169.0233
66.787743 76.153 -169.4291
67.271713 76.148 -169.8228
67.759193 76.144 -170.2141
68.250206 76.138 -170.6148
68.744774 76.129 -171.0282
69.242928 76.116 -171.4430
69.744690 76.099 -171.8414
70.250084 76.083 -172.2130
70.759148 76.070 -172.5616
71.271896 76.061 -172.8980
71.788361 76.054 -173.2287
72.308571 76.048 -173.5530
72.832550 76.044 -173.8701
73.360321 76.042 -174.1839
73.891922 76.042 -174.4986
74.427376 76.042 -174.8135
74.966705 76.042 -175.1262
75.509949 76.043 -175.4407
76.057121 76.044 -175.7695
76.608261 76.044 -176.1273
77.163399 76.040 -176.5179
77.722557 76.033 -176.9290
78.285767 76.021 -177.3405
78.853058 76.009 -177.7320
79.424461 75.996 -178.0899
80.000000 75.984 -178.4031
80.579712 75.972 -178.6646
81.163628 75.958 -178.8741
81.751770 75.942 -179.0404
82.344177 75.924 -179.1800
82.940880 75.904 -179.3223
83.541901 75.879 -179.4987
84.147285 75.847 -179.7246
84.757050 75.808 179.9932
85.371231 75.771 179.6201
85.989868 75.740 179.0927
86.612984 75.719 178.3481
87.240616 75.705 177.3121
87.872803 75.682 175.9105
88.509560 75.604 174.2709
89.150940 75.439 172.9318
89.796967 75.230 172.5199
90.447670 75.093 173.1330
91.103088 75.110 174.1427
91.763260 75.240 174.8545
92.428215 75.392 175.0981
93.097992 75.511 175.0638
93.772614 75.588 174.9208
94.452133 75.618 174.7468
95.136566 75.603 174.6171
95.825966 75.560 174.5541
96.520363 75.506 174.4899
97.219788 75.446 174.3511
97.924286 75.385 174.1121
98.633881 75.327 173.7664
99.348625 75.269 173.3373
100.068542 75.208 172.9213
100.793686 75.148 172.6414
101.524078 75.102 172.5437
102.259766 75.072 172.5942
103.000778 75.051 172.7634
103.747162 75.035 173.0470
104.498962 75.023 173.4119
105.256203 75.016 173.7894
106.018929 75.011 174.1151
106.787186 75.007 174.3344
107.561012 74.997 174.4089
108.340446 74.975 174.3681
109.125526 74.942 174.3101
109.916290 74.913 174.3061
110.712791 74.903 174.3323
111.515060 74.914 174.3217
112.323143 74.938 174.2505
113.137085 74.969 174.1412
113.956924 75.005 174.0114
114.782700 75.043 173.8547
115.614464 75.080 173.6584
116.452255 75.110 173.4187
117.296112 75.130 173.1426
118.146095 75.139 172.8378
119.002228 75.138 172.5067
119.864563 75.127 172.1524
120.733154 75.110 171.7849
121.608040 75.088 171.4213
122.489258 75.068 171.0834
123.376869 75.056 170.7833
124.270905 75.056 170.5068
125.171425 75.067 170.2224
126.078468 75.082 169.9100
126.992081 75.089 169.5759
127.912323 75.084 169.2441
128.839233 75.063 168.9418
129.772842 75.030 168.6822
130.713242 74.993 168.4534
131.660431 74.957 168.2305
132.614502 74.924 168.0006
133.575485 74.897 167.7670
134.543427 74.876 167.5338
135.518387 74.862 167.2962
136.500412 74.850 167.0454
137.489548 74.834 166.7754
138.485855 74.810 166.4898
139.489380 74.773 166.2083
140.500168 74.731 165.9590
141.518295 74.691 165.7459
142.543793 74.661 165.5390
143.576721 74.639 165.3123
144.617142 74.619 165.0787
145.665100 74.597 164.8787
146.720642 74.575 164.7259
147.783844 74.552 164.5885
148.854752 74.526 164.4335
149.933411 74.494 164.2597
151.019897 74.456 164.0880
152.114243 74.420 163.9365
153.216522 74.391 163.8056
154.326797 74.369 163.6846
155.445114 74.351 163.5635
156.571533 74.334 163.4341
157.706116 74.313 163.2875
158.848923 74.286 163.1180
160.000000 74.252 162.9303
161.159424 74.213 162.7380
162.327255 74.176 162.5539
163.503540 74.144 162.3819
164.688354 74.118 162.2208
165.881760 74.095 162.0696
167.083801 74.071 161.9282
168.294571 74.044 161.7954
169.514099 74.011 161.6679
170.742462 73.975 161.5411
171.979736 73.938 161.4120
173.225967 73.904 161.2816
174.481232 73.874 161.1517
175.745605 73.846 161.0214
177.019119 73.818 160.8897
178.301880 73.786 160.7587
179.593933 73.750 160.6338
180.895340 73.711 160.5179
182.206177 73.672 160.4056
183.526520 73.634 160.2852
184.856430 73.597 160.1545
186.195984 73.557 160.0271
187.545227 73.512 159.9229
188.904266 73.465 159.8522
190.273132 73.419 159.8018
191.651932 73.376 159.7394
193.040726 73.337 159.6459
194.439575 73.299 159.5275
195.848572 73.265 159.3960
197.267761 73.230 159.2603
198.697250 73.194 159.1353
200.137085 73.156 159.0352
201.587372 73.121 158.9545
203.048157 73.090 158.8731
204.519531 73.064 158.7790
206.001556 73.038 158.6750
207.494324 73.011 158.5676
208.997925 72.980 158.4558
210.512405 72.945 158.3368
212.037857 72.907 158.2154
213.574371 72.871 158.0992
215.122025 72.836 157.9951
216.680893 72.800 157.9118
218.251053 72.758 157.8594
219.832581 72.707 157.8402
221.425583 72.651 157.8431
223.030121 72.598 157.8423
224.646286 72.553 157.8116
226.274170 72.517 157.7446
227.913849 72.483 157.6640
229.565399 72.446 157.6069
231.228928 72.405 157.5939
232.904510 72.363 157.6133
234.592224 72.325 157.6360
236.292191 72.290 157.6492
238.004456 72.255 157.6702
239.729126 72.219 157.7218
241.466309 72.183 157.8007
243.216080 72.147 157.8795
244.978516 72.114 157.9337
246.753738 72.084 157.9595
248.541809 72.056 157.9661
250.342850 72.030 157.9607
252.156937 72.004 157.9442
253.984161 71.979 157.9171
255.824646 71.953 157.8862
257.678467 71.926 157.8631
259.545685 71.897 157.8563
261.426483 71.863 157.8626
263.320862 71.827 157.8709
265.229004 71.788 157.8747
267.150970 71.749 157.8762
269.086853 71.710 157.8783
271.036774 71.673 157.8789
273.000824 71.637 157.8744
274.979095 71.600 157.8623
276.971710 71.561 157.8461
278.978760 71.520 157.8371
281.000336 71.476 157.8481
283.036591 71.433 157.8814
285.087585 71.393 157.9255
287.153442 71.356 157.9626
289.234283 71.322 157.9812
291.330200 71.288 157.9808
293.441284 71.254 157.9709
295.567688 71.218 157.9655
297.709503 71.180 157.9749
299.866821 71.141 158.0076
302.039795 71.098 158.0728
304.228485 71.052 158.1693
306.433044 71.005 158.2838
308.653595 70.959 158.4023
310.890228 70.915 158.5135
313.143066 70.873 158.6078
315.412231 70.832 158.6815
317.697845 70.791 158.7471
320.000000 70.749 158.8302
322.318848 70.702 158.9403
324.654510 70.653 159.0543
327.007080 70.608 159.1413
329.376709 70.570 159.1956
331.763519 70.538 159.2342
334.167603 70.508 159.2761
336.589142 70.478 159.3318
339.028198 70.446 159.4100
341.484924 70.410 159.5263
343.959473 70.368 159.6903
346.451935 70.327 159.8823
348.962463 70.289 160.0555
351.491211 70.254 160.1773
354.038239 70.218 160.2560
356.603760 70.179 160.3205
359.187866 70.140 160.3951
361.790680 70.100 160.4923
364.412354 70.061 160.6136
367.053040 70.022 160.7581
369.712860 69.984 160.9258
372.391968 69.944 161.1084
375.090454 69.902 161.2926
377.808533 69.859 161.4749
380.546265 69.815 161.6595
383.303864 69.772 161.8431
386.081451 69.732 162.0140
388.879150 69.696 162.1685
391.697144 69.664 162.3188
394.535522 69.636 162.4807
397.394501 69.610 162.6585
400.274170 69.580 162.8421
403.174744 69.541 163.0163
406.096313 69.495 163.1776
409.039062 69.448 163.3336
412.003113 69.406 163.4910
414.988647 69.369 163.6573
417.995850 69.331 163.8403
421.024811 69.293 164.0360
424.075714 69.253 164.2298
427.148743 69.213 164.4185
430.244049 69.174 164.6179
433.361786 69.134 164.8425
436.502106 69.095 165.0875
439.665161 69.057 165.3304
442.851166 69.021 165.5512
446.060242 68.988 165.7472
449.292572 68.955 165.9344
452.548340 68.922 166.1367
455.827698 68.888 166.3645
459.130798 68.853 166.6046
462.457855 68.816 166.8382
465.809021 68.779 167.0599
469.184448 68.744 167.2757
472.584381 68.710 167.4938
476.008911 68.680 167.7207
479.458252 68.651 167.9604
482.932617 68.621 168.2121
486.432159 68.585 168.4706
489.957031 68.545 168.7321
493.507477 68.505 169.0015
497.083618 68.467 169.2853
500.685699 68.430 169.5786
504.313873 68.395 169.8696
507.968323 68.362 170.1507
511.649292 68.332 170.4214
515.356934 68.301 170.6880
519.091370 68.271 170.9577
522.852966 68.242 171.2320
526.641724 68.215 171.5089
530.458008 68.189 171.7882
534.301941 68.163 172.0719
538.173706 68.136 172.3628
542.073547 68.105 172.6670
546.001648 68.072 172.9885
549.958191 68.035 173.3219
553.943420 67.998 173.6570
557.957520 67.964 173.9881
562.000671 67.934 174.3175
566.073181 67.906 174.6483
570.175171 67.880 174.9807
574.306885 67.854 175.3181
578.468567 67.828 175.6657
582.660400 67.801 176.0239
586.882568 67.771 176.3889
591.135376 67.739 176.7553
595.419006 67.706 177.1202
599.733643 67.674 177.4863
604.079590 67.645 177.8595
608.456970 67.617 178.2429
612.866089 67.591 178.6345
617.307190 67.565 179.0277
621.780457 67.541 179.4151
626.286133 67.518 179.7962
630.824463 67.496 -179.8212
635.395691 67.474 -179.4262
640.000000 67.452 -179.0123
644.637695 67.429 -178.5832
649.309021 67.406 -178.1500
654.014160 67.383 -177.7202
658.753418 67.361 -177.2890
663.527039 67.341 -176.8485
668.335205 67.323 -176.3988
673.178284 67.309 -175.9458
678.056396 67.296 -175.4930
682.969849 67.280 -175.0409
687.918945 67.259 -174.5862
692.903870 67.234 -174.1252
697.924927 67.210 -173.6610
702.982422 67.190 -173.1979
708.076477 67.172 -172.7331
713.207520 67.155 -172.2612
718.375732 67.138 -171.7804
723.581360 67.124 -171.2897
728.824707 67.111 -170.7894
734.106079 67.099 -170.2824
739.425720 67.088 -169.7738
744.783936 67.078 -169.2660
750.180908 67.069 -168.7555
755.617065 67.061 -168.2377
761.092529 67.053 -167.7125
766.607727 67.046 -167.1787
772.162903 67.040 -166.6354
777.758301 67.036 -166.0856
783.394287 67.032 -165.5333
789.071045 67.028 -164.9807
794.789001 67.026 -164.4275
800.548340 67.025 -163.8715
806.349487 67.025 -163.3095
812.192627 67.026 -162.7383
818.078125 67.025 -162.1571
824.006226 67.023 -161.5674
829.977295 67.022 -160.9724
835.991699 67.023 -160.3766
842.049622 67.027 -159.7800
848.151428 67.032 -159.1770
854.297485 67.040 -158.5677
860.488098 67.049 -157.9584
866.723572 67.060 -157.3512
873.004211 67.072 -156.7412
879.330322 67.087 -156.1253
885.702332 67.103 -155.5074
892.120483 67.120 -154.8935
898.585144 67.135 -154.2818
905.096680 67.152 -153.6630
911.655396 67.171 -153.0342
918.261597 67.194 -152.3995
924.915710 67.221 -151.7607
931.618042 67.249 -151.1167
938.368896 67.278 -150.4700
945.168762 67.307 -149.8251
952.017822 67.337 -149.1846
958.916504 67.370 -148.5480
965.865234 67.406 -147.9135
972.864319 67.443 -147.2817
979.914062 67.484 -146.6552
987.014954 67.527 -146.0356
994.167236 67.574 -145.4227
1001.371399 67.624 -144.8171
1008.627747 67.678 -144.2186
1015.936646 67.734 -143.6264
1023.298584 67.792 -143.0438
1030.713867 67.852 -142.4777
1038.182739 67.914 -141.9309
1045.705933 67.975 -141.4019
1053.283447 68.037 -140.8894
1060.916016 68.099 -140.3947
1068.603882 68.162 -139.9215
1076.347412 68.226 -139.4724
1084.147095 68.289 -139.0447
1092.003296 68.353 -138.6344
1099.916382 68.416 -138.2396
1107.886841 68.479 -137.8592
1115.915039 68.543 -137.4888
1124.001343 68.607 -137.1249
1132.146362 68.671 -136.7697
1140.350342 68.734 -136.4281
1148.613770 68.796 -136.1030
1156.937134 68.857 -135.7937
1165.320801 68.916 -135.4957
1173.765137 68.973 -135.2022
1182.270752 69.028 -134.9094
1190.838013 69.082 -134.6186
1199.467285 69.134 -134.3320
1208.159180 69.185 -134.0488
1216.913940 69.234 -133.7666
1225.732178 69.284 -133.4835
1234.614380 69.333 -133.1984
1243.560913 69.383 -132.9145
1252.572266 69.434 -132.6344
1261.648926 69.488 -132.3565
1270.791382 69.544 -132.0774
1280.000000 69.603 -131.7955
1289.275391 69.664 -131.5115
1298.618042 69.726 -131.2275
1308.028320 69.786 -130.9456
1317.506836 69.844 -130.6663
1327.054077 69.900 -130.3885
1336.670410 69.954 -130.1098
1346.356567 70.007 -129.8241
1356.112793 70.061 -129.5262
1365.939697 70.114 -129.2188
1375.837891 70.165 -128.9090
1385.807739 70.213 -128.5992
1395.849854 70.259 -128.2879
1405.964844 70.304 -127.9741
1416.152954 70.350 -127.6567
1426.415039 70.397 -127.3343
1436.751465 70.443 -127.0078
1447.162720 70.488 -126.6794
1457.649414 70.534 -126.3507
1468.212158 70.581 -126.0225
1478.851440 70.629 -125.6939
1489.567871 70.678 -125.3626
1500.361816 70.728 -125.0275
1511.234131 70.779 -124.6892
1522.185059 70.829 -124.3480
1533.215454 70.880 -124.0027
1544.325806 70.931 -123.6528
1555.516602 70.983 -123.2982
1566.788574 71.035 -122.9390
1578.142090 71.087 -122.5759
1589.578003 71.139 -122.2115
1601.096680 71.191 -121.8475
1612.698975 71.244 -121.4816
1624.385254 71.298 -121.1098
1636.156250 71.354 -120.7304
1648.012451 71.411 -120.3442
1659.954590 71.468 -119.9528
1671.983398 71.526 -119.5589
1684.099243 71.585 -119.1648
1696.302856 71.644 -118.7719
1708.594971 71.705 -118.3788
1720.976196 71.768 -117.9832
1733.447144 71.832 -117.5829
1746.008423 71.897 -117.1767
1758.660645 71.962 -116.7646
1771.404663 72.029 -116.3480
1784.240967 72.096 -115.9291
1797.170288 72.167 -115.5113
1810.193359 72.239 -115.0982
1823.310791 72.314 -114.6917
1836.523193 72.391 -114.2909
1849.831421 72.469 -113.8949
1863.236084 72.548 -113.5048
1876.737793 72.628 -113.1217
1890.337524 72.708 -112.7453
1904.035645 72.789 -112.3738
1917.833008 72.871 -112.0056
1931.730469 72.953 -111.6411
1945.728638 73.037 -111.2804
1959.828125 73.121 -110.9232
1974.029907 73.206 -110.5690
1988.334473 73.293 -110.2163
2002.742798 73.382 -109.8642
2017.255493 73.473 -109.5125
2031.873291 73.567 -109.1614
2046.597168 73.662 -108.8110
2061.427734 73.758 -108.4612
2076.365479 73.855 -108.1134
2091.411865 73.953 -107.7703
2106.566895 74.052 -107.4337
2121.832031 74.154 -107.1044
2137.207764 74.258 -106.7831
2152.694824 74.365 -106.4697
2168.294189 74.473 -106.1642
2184.006592 74.583 -105.8688
2199.832764 74.695 -105.5853
2215.773682 74.807 -105.3134
2231.830078 74.922 -105.0518
2248.002686 75.039 -104.7995
2264.292725 75.159 -104.5557
2280.700684 75.280 -104.3205
2297.227539 75.403 -104.0959
2313.874268 75.527 -103.8857
2330.641602 75.653 -103.6943
2347.530273 75.782 -103.5255
2364.541504 75.914 -103.3813
2381.676025 76.048 -103.2629
2398.934570 76.184 -103.1685
2416.318359 76.322 -103.0939
2433.827881 76.461 -103.0363
2451.464355 76.602 -102.9967
2469.228760 76.744 -102.9769
2487.121826 76.887 -102.9778
2505.144531 77.030 -103.0010
2523.297852 77.173 -103.0499
2541.582764 77.316 -103.1288
2560.000000 77.457 -103.2411
2578.550781 77.596 -103.3890
2597.236084 77.731 -103.5727
2616.056641 77.864 -103.7913
2635.013672 77.993 -104.0439
2654.108154 78.120 -104.3307
2673.340820 78.245 -104.6519
2692.713135 78.367 -105.0059
2712.225586 78.486 -105.3888
2731.879395 78.600 -105.7967
2751.675781 78.710 -106.2262
2771.615479 78.815 -106.6744
2791.699707 78.915 -107.1401
2811.929688 79.012 -107.6224
2832.305908 79.103 -108.1204
2852.830078 79.190 -108.6325
2873.502930 79.272 -109.1568
2894.325439 79.347 -109.6904
2915.298828 79.417 -110.2307
2936.424316 79.480 -110.7749
2957.702881 79.536 -111.3206
2979.135742 79.588 -111.8663
3000.723633 79.633 -112.4118
3022.468262 79.673 -112.9566
3044.370117 79.706 -113.4997
3066.430908 79.732 -114.0389
3088.651611 79.752 -114.5704
3111.033203 79.766 -115.0898
3133.577148 79.774 -115.5928
3156.284180 79.776 -116.0753
3179.156006 79.772 -116.5331
3202.193359 79.762 -116.9618
3225.397949 79.746 -117.3577
3248.770508 79.723 -117.7173
3272.312500 79.696 -118.0372
3296.024902 79.664 -118.3123
3319.909180 79.628 -118.5380
3343.966797 79.591 -118.7117
3368.198486 79.554 -118.8333
3392.605713 79.520 -118.9060
3417.189941 79.489 -118.9384
3441.952393 79.462 -118.9447
3466.894287 79.441 -118.9424
3492.016846 79.424 -118.9500
3517.321289 79.413 -118.9832
3542.809326 79.404 -119.0532
3568.481934 79.397 -119.1654
3594.340576 79.389 -119.3210
3620.386719 79.379 -119.5172
3646.621582 79.363 -119.7465
3673.046387 79.342 -119.9979
3699.662842 79.314 -120.2588
3726.472168 79.279 -120.5174
3753.475586 79.237 -120.7619
3780.675049 79.188 -120.9826
3808.071289 79.133 -121.1719
3835.666016 79.071 -121.3252
3863.460938 79.005 -121.4401
3891.457275 78.933 -121.5166
3919.656250 78.858 -121.5567
3948.059814 78.780 -121.5616
3976.668945 78.699 -121.5314
4005.485596 78.616 -121.4653
4034.510986 78.529 -121.3626
4063.746582 78.440 -121.2241
4093.194336 78.346 -121.0527
4122.855469 78.249 -120.8515
4152.730957 78.146 -120.6214
4182.823730 78.038 -120.3612
4213.133789 77.928 -120.0677
4243.664062 77.817 -119.7389
4274.415527 77.707 -119.3763
4305.389648 77.599 -118.9825
4336.588379 77.496 -118.5567
4368.013184 77.399 -118.0947
4399.665527 77.311 -117.5919
4431.547363 77.233 -117.0464
4463.660156 77.164 -116.4628
4496.005371 77.103 -115.8515
4528.585449 77.048 -115.2236
4561.401367 76.997 -114.5872
4594.455078 76.951 -113.9463
4627.748535 76.909 -113.3026
4661.283203 76.868 -112.6562
4695.060547 76.828 -112.0061
4729.083008 76.787 -111.3497
4763.352051 76.747 -110.6837
4797.869141 76.707 -110.0039
4832.636719 76.667 -109.3061
4867.655762 76.629 -108.5874
4902.928711 76.591 -107.8476
4938.457520 76.556 -107.0885
4974.243652 76.523 -106.3125
5010.289062 76.492 -105.5213
5046.595703 76.465 -104.7162
5083.165527 76.441 -103.8978
5120.000000 76.421 -103.0666
5157.101562 76.406 -102.2237
5194.472168 76.395 -101.3708
5232.113281 76.386 -100.5109
5270.027344 76.380 -99.6492
5308.216309 76.373 -98.7921
5346.681641 76.366 -97.9432
5385.426270 76.359 -97.0997
5424.451172 76.354 -96.2545
5463.758789 76.354 -95.4014
5503.351562 76.358 -94.5414
5543.230957 76.367 -93.6809
5583.399414 76.380 -92.8251
5623.859375 76.397 -91.9763
5664.611816 76.417 -91.1357
5705.660156 76.439 -90.3046
5747.005859 76.464 -89.4838
5788.650879 76.490 -88.6736
5830.597656 76.517 -87.8753
5872.848633 76.545 -87.0930
5915.405762 76.574 -86.3299
5958.271484 76.605 -85.5849
6001.447266 76.640 -84.8546
6044.936523 76.681 -84.1355
6088.740234 76.727 -83.4259
6132.861816 76.779 -82.7269
6177.303223 76.836 -82.0407
6222.066406 76.899 -81.3695
6267.154297 76.966 -80.7171
6312.568359 77.039 -80.0922
6358.312012 77.119 -79.5071
6404.386719 77.204 -78.9766
6450.795898 77.295 -78.5145
6497.541016 77.389 -78.1293
6544.625000 77.486 -77.8253
6592.049805 77.585 -77.6046
6639.818359 77.684 -77.4686
6687.933594 77.783 -77.4177
6736.396973 77.880 -77.4489
6785.211426 77.972 -77.5550
6834.379883 78.057 -77.7318
6883.904785 78.134 -77.9853
6933.788574 78.198 -78.3286
6984.033691 78.249 -78.7725
7034.642578 78.283 -79.3170
7085.618652 78.302 -79.9505
7136.963867 78.302 -80.6569
7188.681152 78.286 -81.4213
7240.773438 78.254 -82.2296
7293.243164 78.207 -83.0659
7346.092773 78.144 -83.9140
7399.325684 78.065 -84.7595
7452.944336 77.969 -85.5914
7506.951172 77.857 -86.4021
7561.350098 77.734 -87.1885
7616.142578 77.603 -87.9538
7671.332031 77.470 -88.7059
7726.921875 77.339 -89.4543
7782.914551 77.214 -90.2126
7839.312500 77.093 -91.0067
7896.119629 76.973 -91.8804
7953.337891 76.846 -92.8902
8010.971191 76.701 -94.0884
8069.021973 76.524 -95.4975
8127.493164 76.302 -97.0902
8186.388672 76.019 -98.7898
8245.710938 75.666 -100.4838
8305.461914 75.238 -102.0394
8365.647461 74.739 -103.3212
8426.267578 74.179 -104.2128
8487.328125 73.570 -104.6340
8548.831055 72.925 -104.5485
8610.779297 72.261 -103.9603
8673.176758 71.589 -102.9024
8736.026367 70.922 -101.4244
8799.331055 70.274 -99.5827
8863.094727 69.653 -97.4345
8927.320312 69.066 -95.0354
8992.010742 68.514 -92.4335
9057.170898 67.994 -89.6628
9122.802734 67.502 -86.7438
9188.910156 67.037 -83.6914
9255.497070 66.598 -80.5206
9322.566406 66.185 -77.2498
9390.121094 65.795 -73.9026
9458.166016 65.424 -70.5016
9526.704102 65.071 -67.0629
9595.738281 64.737 -63.5969
9665.273438 64.423 -60.1081
9735.311523 64.126 -56.5964
9805.857422 63.845 -53.0611
9876.915039 63.577 -49.5030
9948.487305 63.320 -45.9216
10020.578125 63.078 -42.3114
10093.191406 62.851 -38.6648
10166.331055 62.641 -34.9782
10240.000000 62.451 -31.2554
10314.203125 62.282 -27.5041
10388.944336 62.130 -23.7302
10464.226562 61.993 -19.9401
10540.054688 61.865 -16.1400
10616.432617 61.743 -12.3321
10693.363281 61.627 -8.5131
10770.852539 61.521 -4.6763
10848.902344 61.430 -0.8161
10927.517578 61.359 3.0697
11006.703125 61.306 6.9822
11086.461914 61.273 10.9248
11166.798828 61.258 14.8958
11247.718750 61.262 18.8772
11329.223633 61.280 22.8394
11411.320312 61.309 26.7569
11494.011719 61.348 30.6167
11577.301758 61.397 34.4208
11661.195312 61.462 38.1822
11745.697266 61.546 41.9130
11830.811523 61.649 45.6165
11916.542969 61.768 49.2900
12002.894531 61.903 52.9306
12089.873047 62.053 56.5346
12177.480469 62.221 60.0936
12265.723633 62.410 63.5957
12354.606445 62.620 67.0322
12444.132812 62.851 70.4062
12534.308594 63.101 73.7282
12625.136719 63.370 77.0047
12716.624023 63.659 80.2349
12808.773438 63.970 83.4084
12901.591797 64.306 86.5048
12995.082031 64.663 89.4940
13089.250000 65.035 92.3411
13184.099609 65.414 95.0134
13279.636719 65.796 97.4797
13375.867188 66.179 99.7068
13472.793945 66.566 101.6619
13570.422852 66.964 103.3134
13668.759766 67.383 104.6233
13767.809570 67.829 105.5415
13867.577148 68.302 106.0079
13968.067383 68.796 105.9617
14069.285156 69.297 105.3500
14171.237305 69.784 104.1309
14273.927734 70.231 102.2769
14377.362305 70.612 99.7909
14481.546875 70.904 96.7276
14586.486328 71.084 93.2131
14692.185547 71.141 89.4500
14798.651367 71.070 85.6857
14905.888672 70.878 82.1525
15013.902344 70.576 79.0249
15122.700195 70.180 76.4107
15232.285156 69.704 74.3645
15342.664062 69.158 72.8996
15453.843750 68.553 71.9881
15565.829102 67.897 71.5630
15678.625000 67.207 71.5377
15792.239258 66.511 71.8271
15906.675781 65.843 72.3561
16021.942383 65.236 73.0602
16138.043945 64.718 73.8828
16254.986328 64.300 74.7647
16372.777344 63.981 75.6344
16491.421875 63.750 76.4089
16610.923828 63.590 77.0075
16731.294922 63.484 77.3599
16852.535156 63.412 77.3998
16974.656250 63.355 77.0499
17097.662109 63.294 76.2284
17221.558594 63.213 74.8819
17346.353516 63.086 73.0149
17472.052734 62.882 70.7045
17598.662109 62.570 68.0989
17726.189453 62.128 65.4014
17854.640625 61.549 62.8528
17984.021484 60.843 60.6964
18114.341797 60.028 59.1270
18245.605469 59.127 58.2608
18377.820312 58.168 58.1471
18510.994141 57.179 58.7897
18645.132812 56.184 60.1513
18780.242188 55.200 62.1576
18916.332031 54.243 64.7165
19053.408203 53.324 67.7237
19191.476562 52.447 71.0650
19330.546875 51.607 74.6480
19470.623047 50.789 78.4205
19611.714844 49.990 82.2879
19753.830078 49.244 85.9482
19896.974609 48.654 88.8094
