* Measurement data measured by REW V5.20.9
* Source:
* Format:
* Dated: 2022/08/25 23:24:17
* REW Settings:
*  C-weighting compensation: Off
*  Target level: 75.0 dB
* Note:
* Smoothing: 1/24 octave
* Frequency Step: 1/96 octave
* Start Frequency: 9.928 Hz
*
* Freq(Hz) SPL(dB) Phase(degrees)
9.928058 70.064 148.1141
10.000000 70.077 147.8960
10.072464 70.090 147.6145
10.145453 70.103 147.2643
10.218971 70.117 146.8398
10.293022 70.134 146.3251
10.367610 70.159 145.6812
10.442738 70.187 144.9522
10.518411 70.216 144.1953
10.594631 70.246 143.4702
10.671404 70.275 142.8181
10.748734 70.304 142.1989
10.826623 70.333 141.5958
10.905077 70.364 140.9956
10.984100 70.398 140.3840
11.063695 70.436 139.7601
11.143867 70.478 139.1326
11.224621 70.521 138.5006
11.305959 70.565 137.8632
11.387886 70.607 137.2181
11.470407 70.648 136.5597
11.553527 70.690 135.8951
11.637249 70.731 135.2338
11.721577 70.773 134.5861
11.806517 70.815 133.9547
11.892071 70.856 133.3340
11.978246 70.899 132.7207
12.065045 70.943 132.1115
12.152473 70.992 131.5055
12.240536 71.043 130.9060
12.329235 71.097 130.3107
12.418578 71.151 129.7173
12.508568 71.206 129.1247
12.599211 71.262 128.5351
12.690510 71.319 127.9472
12.782471 71.376 127.3591
12.875097 71.434 126.7694
12.968395 71.493 126.1795
13.062370 71.553 125.5893
13.157025 71.613 124.9982
13.252366 71.676 124.4056
13.348398 71.739 123.8115
13.445127 71.804 123.2172
13.542556 71.868 122.6237
13.640691 71.931 122.0306
13.739536 71.995 121.4375
13.839099 72.058 120.8470
13.939383 72.117 120.2614
14.040393 72.175 119.6780
14.142136 72.230 119.0992
14.244616 72.282 118.5298
14.347837 72.330 117.9731
14.451808 72.373 117.4261
14.556532 72.414 116.8921
14.662014 72.453 116.3750
14.768262 72.490 115.8768
14.875278 72.525 115.3953
14.983070 72.562 114.9286
15.091644 72.604 114.4772
15.201005 72.648 114.0443
15.311157 72.695 113.6209
15.422109 72.744 113.1986
15.533863 72.797 112.7841
15.646428 72.850 112.3712
15.759809 72.901 111.9485
15.874010 72.949 111.5161
15.989040 72.995 111.0755
16.104904 73.038 110.6228
16.221605 73.077 110.1547
16.339155 73.113 109.6733
16.457554 73.147 109.1836
16.576813 73.182 108.6870
16.696936 73.216 108.1815
16.817928 73.249 107.6735
16.939798 73.283 107.1673
17.062551 73.316 106.6602
17.186193 73.348 106.1525
17.310732 73.378 105.6456
17.436172 73.407 105.1391
17.562521 73.434 104.6273
17.689787 73.460 104.1081
17.817974 73.485 103.5827
17.947090 73.509 103.0458
18.077143 73.533 102.4953
18.208138 73.557 101.9327
18.340080 73.582 101.3577
18.472980 73.608 100.7689
18.606844 73.634 100.1685
18.741676 73.661 99.5597
18.877487 73.688 98.9406
19.014280 73.716 98.3152
19.152065 73.742 97.6858
19.290850 73.768 97.0514
19.430639 73.793 96.4166
19.571442 73.818 95.7820
19.713264 73.843 95.1477
19.856115 73.868 94.5158
20.000000 73.893 93.8864
20.144928 73.920 93.2559
20.290907 73.946 92.6248
20.437943 73.973 91.9909
20.586044 74.001 91.3484
20.735220 74.028 90.6984
20.885475 74.056 90.0393
21.036821 74.085 89.3685
21.189262 74.114 88.6899
21.342808 74.143 88.0070
21.497467 74.171 87.3192
21.653246 74.198 86.6363
21.810154 74.223 85.9578
21.968201 74.246 85.2893
22.127390 74.267 84.6347
22.287735 74.287 83.9941
22.449242 74.309 83.3714
22.611917 74.332 82.7660
22.775772 74.358 82.1782
22.940815 74.388 81.6090
23.107054 74.420 81.0536
23.274498 74.454 80.5131
23.443153 74.490 79.9807
23.613033 74.528 79.4534
23.784142 74.567 78.9281
23.956491 74.609 78.3989
24.130091 74.652 77.8666
24.304947 74.695 77.3281
24.481071 74.738 76.7845
24.658470 74.778 76.2374
24.837156 74.817 75.6871
25.017136 74.853 75.1367
25.198421 74.888 74.5862
25.381020 74.920 74.0378
25.564941 74.952 73.4915
25.750195 74.984 72.9474
25.936790 75.014 72.4052
26.124741 75.045 71.8627
26.314051 75.074 71.3197
26.504732 75.101 70.7729
26.696796 75.127 70.2226
26.890253 75.150 69.6679
27.085112 75.170 69.1106
27.281382 75.187 68.5528
27.479073 75.201 67.9977
27.678198 75.212 67.4485
27.878765 75.221 66.9069
28.080786 75.228 66.3747
28.284271 75.235 65.8491
28.489231 75.243 65.3297
28.695675 75.253 64.8095
28.903616 75.264 64.2871
29.113064 75.277 63.7566
29.324028 75.291 63.2182
29.536524 75.305 62.6701
29.750557 75.318 62.1162
29.966141 75.329 61.5578
30.183289 75.339 61.0000
30.402010 75.350 60.4437
30.622314 75.362 59.8912
30.844217 75.376 59.3413
31.067726 75.392 58.7938
31.292856 75.409 58.2465
31.519617 75.426 57.6996
31.748020 75.444 57.1527
31.978081 75.461 56.6090
32.209808 75.478 56.0699
32.443211 75.497 55.5395
32.678310 75.516 55.0195
32.915108 75.536 54.5113
33.153625 75.556 54.0136
33.393871 75.576 53.5232
33.635857 75.597 53.0372
33.879597 75.618 52.5505
34.125103 75.640 52.0623
34.372387 75.661 51.5717
34.621464 75.681 51.0813
34.872345 75.701 50.5929
35.125042 75.719 50.1082
35.379574 75.738 49.6278
35.635948 75.755 49.1501
35.894180 75.773 48.6737
36.154285 75.789 48.1965
36.416275 75.804 47.7170
36.680161 75.817 47.2349
36.945961 75.829 46.7497
37.213688 75.840 46.2607
37.483353 75.853 45.7648
37.754974 75.867 45.2582
38.028561 75.885 44.7354
38.304131 75.905 44.1901
38.581699 75.926 43.6218
38.861279 75.943 43.0332
39.142883 75.955 42.4316
39.426529 75.959 41.8322
39.712231 75.957 41.2485
40.000000 75.950 40.6908
40.289856 75.939 40.1653
40.581814 75.928 39.6709
40.875885 75.917 39.1975
41.172089 75.909 38.7336
41.470440 75.902 38.2694
41.770950 75.899 37.7979
42.073643 75.899 37.3178
42.378525 75.902 36.8334
42.685616 75.909 36.3485
42.994934 75.920 35.8642
43.306492 75.934 35.3784
43.620308 75.950 34.8867
43.936401 75.967 34.3852
44.254780 75.984 33.8755
44.575470 75.998 33.3661
44.898483 76.010 32.8672
45.223835 76.021 32.3853
45.551544 76.032 31.9184
45.881630 76.045 31.4559
46.214108 76.060 30.9826
46.548996 76.073 30.4871
46.886307 76.083 29.9702
47.226067 76.088 29.4468
47.568283 76.087 28.9393
47.912983 76.084 28.4651
48.260181 76.081 28.0272
48.609894 76.081 27.6125
48.962143 76.083 27.1987
49.316940 76.085 26.7645
49.674313 76.085 26.2980
50.034271 76.081 25.7993
50.396843 76.073 25.2764
50.762039 76.061 24.7407
51.129883 76.045 24.2030
51.500389 76.027 23.6732
51.873581 76.009 23.1600
52.249481 75.995 22.6693
52.628101 75.986 22.2016
53.009464 75.984 21.7513
53.393593 75.989 21.3090
53.780506 75.998 20.8665
54.170223 76.010 20.4201
54.562763 76.024 19.9710
54.958145 76.038 19.5213
55.356396 76.054 19.0717
55.757530 76.069 18.6207
56.161572 76.083 18.1655
56.568542 76.095 17.7035
56.978462 76.103 17.2335
57.391350 76.106 16.7557
57.807232 76.101 16.2717
58.226128 76.090 15.7843
58.648056 76.073 15.2964
59.073048 76.052 14.8093
59.501114 76.029 14.3240
59.932281 76.005 13.8431
60.366577 75.982 13.3727
60.804020 75.962 12.9185
61.244629 75.946 12.4814
61.688435 75.935 12.0546
62.135452 75.929 11.6270
62.585712 75.925 11.1914
63.039234 75.923 10.7488
63.496040 75.921 10.3061
63.956161 75.920 9.8714
64.419617 75.921 9.4491
64.886421 75.923 9.0392
65.356621 75.927 8.6390
65.830215 75.931 8.2443
66.307251 75.934 7.8513
66.787743 75.936 7.4593
67.271713 75.936 7.0700
67.759193 75.933 6.6856
68.250206 75.929 6.3058
68.744774 75.921 5.9283
69.242928 75.910 5.5530
69.744690 75.896 5.1841
70.250084 75.878 4.8280
70.759148 75.859 4.4888
71.271896 75.839 4.1672
71.788361 75.819 3.8622
72.308571 75.799 3.5714
72.832550 75.783 3.2871
73.360321 75.771 2.9956
73.891922 75.765 2.6845
74.427376 75.762 2.3495
74.966705 75.762 1.9953
75.509949 75.764 1.6293
76.057121 75.766 1.2565
76.608261 75.768 0.8815
77.163399 75.768 0.5105
77.722557 75.766 0.1527
78.285767 75.761 -0.1830
78.853058 75.753 -0.4885
79.424461 75.740 -0.7588
80.000000 75.721 -0.9920
80.579712 75.695 -1.1926
81.163628 75.659 -1.3735
81.751770 75.615 -1.5516
82.344177 75.563 -1.7395
82.940880 75.509 -1.9532
83.541901 75.456 -2.2218
84.147285 75.409 -2.5751
84.757050 75.373 -3.0286
85.371231 75.354 -3.6006
85.989868 75.358 -4.3227
86.612984 75.387 -5.2111
87.240616 75.443 -6.2889
87.872803 75.520 -7.6666
88.509560 75.569 -9.4519
89.150940 75.516 -11.3660
89.796967 75.329 -12.6649
90.447670 75.077 -12.6858
91.103088 74.896 -11.5506
91.763260 74.859 -10.0873
92.428215 74.917 -9.0117
93.097992 74.976 -8.4788
93.772614 74.983 -8.2323
94.452133 74.937 -7.9491
95.136566 74.876 -7.4813
95.825966 74.840 -6.9400
96.520363 74.834 -6.5449
97.219788 74.841 -6.3900
97.924286 74.841 -6.3966
98.633881 74.831 -6.4292
99.348625 74.817 -6.3724
100.068542 74.813 -6.1682
100.793686 74.831 -5.8630
101.524078 74.871 -5.5747
102.259766 74.917 -5.3811
103.000778 74.959 -5.2830
103.747162 74.993 -5.2602
104.498962 75.019 -5.3075
105.256203 75.041 -5.4259
106.018929 75.062 -5.6241
106.787186 75.080 -5.9150
107.561012 75.091 -6.2843
108.340446 75.090 -6.6771
109.125526 75.077 -7.0295
109.916290 75.057 -7.3028
110.712791 75.037 -7.4981
111.515060 75.022 -7.6602
112.323143 75.015 -7.8514
113.137085 75.008 -8.1004
113.956924 75.001 -8.3884
114.782700 74.995 -8.6913
115.614464 74.994 -9.0139
116.452255 74.995 -9.3710
117.296112 74.993 -9.7521
118.146095 74.982 -10.1214
119.002228 74.963 -10.4461
119.864563 74.939 -10.7151
120.733154 74.915 -10.9420
121.608040 74.895 -11.1589
122.489258 74.880 -11.3956
123.376869 74.866 -11.6565
124.270905 74.851 -11.9140
125.171425 74.838 -12.1416
126.078468 74.830 -12.3497
126.992081 74.823 -12.5715
127.912323 74.810 -12.8234
128.839233 74.788 -13.0938
129.772842 74.756 -13.3644
130.713242 74.720 -13.6300
131.660431 74.683 -13.8886
132.614502 74.647 -14.1282
133.575485 74.616 -14.3359
134.543427 74.592 -14.5119
135.518387 74.575 -14.6727
136.500412 74.561 -14.8441
137.489548 74.544 -15.0444
138.485855 74.519 -15.2708
139.489380 74.485 -15.5042
140.500168 74.446 -15.7254
141.518295 74.408 -15.9273
142.543793 74.376 -16.1119
143.576721 74.350 -16.2853
144.617142 74.330 -16.4613
145.665100 74.313 -16.6629
146.720642 74.293 -16.9039
147.783844 74.265 -17.1757
148.854752 74.227 -17.4503
149.933411 74.185 -17.6905
151.019897 74.144 -17.8729
152.114243 74.112 -18.0049
153.216522 74.089 -18.1072
154.326797 74.074 -18.1952
155.445114 74.060 -18.2835
156.571533 74.043 -18.3885
157.706116 74.020 -18.5193
158.848923 73.989 -18.6744
160.000000 73.952 -18.8461
161.159424 73.913 -19.0230
162.327255 73.877 -19.1927
163.503540 73.845 -19.3470
164.688354 73.819 -19.4851
165.881760 73.796 -19.6136
167.083801 73.771 -19.7420
168.294571 73.741 -19.8768
169.514099 73.705 -20.0187
170.742462 73.665 -20.1632
171.979736 73.625 -20.3051
173.225967 73.590 -20.4422
174.481232 73.562 -20.5753
175.745605 73.537 -20.7052
177.019119 73.511 -20.8311
178.301880 73.481 -20.9535
179.593933 73.446 -21.0743
180.895340 73.407 -21.1949
182.206177 73.367 -21.3151
183.526520 73.327 -21.4341
184.856430 73.287 -21.5506
186.195984 73.247 -21.6646
187.545227 73.205 -21.7757
188.904266 73.158 -21.8823
190.273132 73.109 -21.9828
191.651932 73.060 -22.0778
193.040726 73.016 -22.1698
194.439575 72.980 -22.2622
195.848572 72.951 -22.3577
197.267761 72.924 -22.4569
198.697250 72.893 -22.5584
200.137085 72.857 -22.6597
201.587372 72.819 -22.7590
203.048157 72.781 -22.8554
204.519531 72.747 -22.9508
206.001556 72.717 -23.0464
207.494324 72.686 -23.1412
208.997925 72.651 -23.2310
210.512405 72.612 -23.3105
212.037857 72.572 -23.3797
213.574371 72.533 -23.4450
215.122025 72.496 -23.5124
216.680893 72.460 -23.5798
218.251053 72.421 -23.6364
219.832581 72.379 -23.6711
221.425583 72.336 -23.6821
223.030121 72.294 -23.6753
224.646286 72.255 -23.6570
226.274170 72.217 -23.6286
227.913849 72.179 -23.5891
229.565399 72.142 -23.5399
231.228928 72.107 -23.4865
232.904510 72.076 -23.4403
234.592224 72.051 -23.4176
236.292191 72.030 -23.4291
238.004456 72.008 -23.4673
239.729126 71.984 -23.5156
241.466309 71.959 -23.5686
243.216080 71.933 -23.6285
244.978516 71.903 -23.6940
246.753738 71.872 -23.7620
248.541809 71.838 -23.8327
250.342850 71.803 -23.9060
252.156937 71.768 -23.9769
253.984161 71.732 -24.0370
255.824646 71.696 -24.0836
257.678467 71.657 -24.1235
259.545685 71.615 -24.1624
261.426483 71.573 -24.1959
263.320862 71.533 -24.2155
265.229004 71.496 -24.2185
267.150970 71.459 -24.2114
269.086853 71.421 -24.2051
271.036774 71.381 -24.2054
273.000824 71.340 -24.2079
274.979095 71.300 -24.2029
276.971710 71.259 -24.1871
278.978760 71.218 -24.1660
281.000336 71.177 -24.1449
283.036591 71.137 -24.1229
285.087585 71.100 -24.0967
287.153442 71.064 -24.0646
289.234283 71.028 -24.0266
291.330200 70.990 -23.9867
293.441284 70.949 -23.9499
295.567688 70.907 -23.9167
297.709503 70.864 -23.8826
299.866821 70.821 -23.8420
302.039795 70.778 -23.7916
304.228485 70.737 -23.7342
306.433044 70.697 -23.6766
308.653595 70.656 -23.6230
310.890228 70.614 -23.5678
313.143066 70.573 -23.4991
315.412231 70.533 -23.4100
317.697845 70.494 -23.3066
320.000000 70.455 -23.2042
322.318848 70.416 -23.1130
324.654510 70.376 -23.0304
327.007080 70.336 -22.9482
329.376709 70.297 -22.8614
331.763519 70.259 -22.7650
334.167603 70.222 -22.6553
336.589142 70.187 -22.5403
339.028198 70.151 -22.4348
341.484924 70.114 -22.3415
343.959473 70.074 -22.2481
346.451935 70.032 -22.1450
348.962463 69.990 -22.0361
351.491211 69.947 -21.9299
354.038239 69.907 -21.8253
356.603760 69.868 -21.7128
359.187866 69.828 -21.5890
361.790680 69.785 -21.4575
364.412354 69.740 -21.3211
367.053040 69.695 -21.1827
369.712860 69.653 -21.0449
372.391968 69.613 -20.9052
375.090454 69.573 -20.7568
377.808533 69.532 -20.5991
380.546265 69.491 -20.4397
383.303864 69.452 -20.2849
386.081451 69.419 -20.1328
388.879150 69.388 -19.9764
391.697144 69.358 -19.8162
394.535522 69.326 -19.6631
397.394501 69.292 -19.5203
400.274170 69.256 -19.3743
403.174744 69.219 -19.2098
406.096313 69.181 -19.0259
409.039062 69.141 -18.8324
412.003113 69.099 -18.6354
414.988647 69.057 -18.4357
417.995850 69.018 -18.2367
421.024811 68.981 -18.0423
424.075714 68.946 -17.8511
427.148743 68.911 -17.6589
430.244049 68.876 -17.4608
433.361786 68.843 -17.2525
436.502106 68.809 -17.0343
439.665161 68.773 -16.8113
442.851166 68.734 -16.5887
446.060242 68.693 -16.3684
449.292572 68.655 -16.1500
452.548340 68.620 -15.9347
455.827698 68.589 -15.7241
459.130798 68.558 -15.5147
462.457855 68.525 -15.2969
465.809021 68.490 -15.0629
469.184448 68.455 -14.8168
472.584381 68.424 -14.5695
476.008911 68.394 -14.3242
479.458252 68.364 -14.0763
482.932617 68.332 -13.8260
486.432159 68.295 -13.5768
489.957031 68.256 -13.3269
493.507477 68.216 -13.0716
497.083618 68.180 -12.8072
500.685699 68.147 -12.5327
504.313873 68.117 -12.2513
507.968323 68.086 -11.9709
511.649292 68.051 -11.6977
515.356934 68.016 -11.4301
519.091370 67.981 -11.1601
522.852966 67.948 -10.8791
526.641724 67.918 -10.5833
530.458008 67.892 -10.2764
534.301941 67.867 -9.9666
538.173706 67.842 -9.6597
542.073547 67.815 -9.3553
546.001648 67.784 -9.0484
549.958191 67.750 -8.7358
553.943420 67.714 -8.4186
557.957520 67.680 -8.0977
562.000671 67.650 -7.7722
566.073181 67.624 -7.4394
570.175171 67.601 -7.0962
574.306885 67.579 -6.7427
578.468567 67.556 -6.3821
582.660400 67.530 -6.0184
586.882568 67.500 -5.6543
591.135376 67.468 -5.2901
595.419006 67.435 -4.9240
599.733643 67.403 -4.5524
604.079590 67.373 -4.1727
608.456970 67.344 -3.7858
612.866089 67.318 -3.3961
617.307190 67.293 -3.0061
621.780457 67.271 -2.6130
626.286133 67.249 -2.2132
630.824463 67.229 -1.8090
635.395691 67.208 -1.4045
640.000000 67.187 -0.9984
644.637695 67.166 -0.5872
649.309021 67.145 -0.1716
654.014160 67.124 0.2474
658.753418 67.105 0.6740
663.527039 67.086 1.1113
668.335205 67.068 1.5557
673.178284 67.050 2.0024
678.056396 67.032 2.4521
682.969849 67.013 2.9078
687.918945 66.994 3.3698
692.903870 66.976 3.8337
697.924927 66.958 4.2971
702.982422 66.942 4.7622
708.076477 66.926 5.2324
713.207520 66.911 5.7079
718.375732 66.897 6.1865
723.581360 66.885 6.6673
728.824707 66.874 7.1516
734.106079 66.864 7.6418
739.425720 66.856 8.1377
744.783936 66.848 8.6363
750.180908 66.841 9.1362
755.617065 66.835 9.6405
761.092529 66.831 10.1524
766.607727 66.827 10.6705
772.162903 66.824 11.1907
777.758301 66.821 11.7120
783.394287 66.819 12.2367
789.071045 66.817 12.7653
794.789001 66.815 13.2965
800.548340 66.814 13.8297
806.349487 66.814 14.3633
812.192627 66.813 14.8945
818.078125 66.813 15.4241
824.006226 66.815 15.9569
829.977295 66.817 16.4979
835.991699 66.821 17.0469
842.049622 66.824 17.5987
848.151428 66.829 18.1475
854.297485 66.836 18.6926
860.488098 66.844 19.2379
866.723572 66.854 19.7866
873.004211 66.865 20.3399
879.330322 66.877 20.8971
885.702332 66.890 21.4560
892.120483 66.901 22.0125
898.585144 66.911 22.5629
905.096680 66.922 23.1078
911.655396 66.934 23.6523
918.261597 66.947 24.2023
924.915710 66.961 24.7617
931.618042 66.976 25.3314
938.368896 66.991 25.9074
945.168762 67.005 26.4849
952.017822 67.019 27.0640
958.916504 67.033 27.6495
965.865234 67.049 28.2440
972.864319 67.067 28.8469
979.914062 67.086 29.4577
987.014954 67.107 30.0765
994.167236 67.130 30.6996
1001.371399 67.155 31.3210
1008.627747 67.183 31.9394
1015.936646 67.215 32.5583
1023.298584 67.249 33.1795
1030.713867 67.285 33.8005
1038.182739 67.323 34.4172
1045.705933 67.362 35.0278
1053.283447 67.401 35.6325
1060.916016 67.441 36.2312
1068.603882 67.482 36.8232
1076.347412 67.525 37.4094
1084.147095 67.569 37.9897
1092.003296 67.616 38.5620
1099.916382 67.665 39.1228
1107.886841 67.718 39.6703
1115.915039 67.774 40.2052
1124.001343 67.832 40.7286
1132.146362 67.892 41.2396
1140.350342 67.953 41.7353
1148.613770 68.014 42.2154
1156.937134 68.075 42.6816
1165.320801 68.135 43.1352
1173.765137 68.195 43.5756
1182.270752 68.254 44.0025
1190.838013 68.313 44.4164
1199.467285 68.370 44.8185
1208.159180 68.427 45.2097
1216.913940 68.484 45.5934
1225.732178 68.539 45.9747
1234.614380 68.593 46.3543
1243.560913 68.649 46.7288
1252.572266 68.705 47.0961
1261.648926 68.765 47.4576
1270.791382 68.827 47.8163
1280.000000 68.894 48.1744
1289.275391 68.962 48.5315
1298.618042 69.031 48.8860
1308.028320 69.098 49.2386
1317.506836 69.162 49.5910
1327.054077 69.223 49.9432
1336.670410 69.282 50.2957
1346.356567 69.341 50.6506
1356.112793 69.400 51.0084
1365.939697 69.458 51.3689
1375.837891 69.513 51.7324
1385.807739 69.565 52.0999
1395.849854 69.615 52.4708
1405.964844 69.665 52.8434
1416.152954 69.716 53.2177
1426.415039 69.766 53.5968
1436.751465 69.816 53.9821
1447.162720 69.865 54.3709
1457.649414 69.915 54.7592
1468.212158 69.965 55.1468
1478.851440 70.016 55.5352
1489.567871 70.070 55.9249
1500.361816 70.124 56.3154
1511.234131 70.179 56.7053
1522.185059 70.234 57.0927
1533.215454 70.288 57.4779
1544.325806 70.341 57.8639
1555.516602 70.395 58.2526
1566.788574 70.449 58.6437
1578.142090 70.504 59.0365
1589.578003 70.559 59.4320
1601.096680 70.615 59.8305
1612.698975 70.672 60.2319
1624.385254 70.730 60.6351
1636.156250 70.788 61.0391
1648.012451 70.847 61.4446
1659.954590 70.907 61.8535
1671.983398 70.967 62.2671
1684.099243 71.029 62.6842
1696.302856 71.092 63.1027
1708.594971 71.157 63.5224
1720.976196 71.224 63.9451
1733.447144 71.293 64.3713
1746.008423 71.361 64.8004
1758.660645 71.431 65.2307
1771.404663 71.500 65.6592
1784.240967 71.572 66.0836
1797.170288 71.645 66.5043
1810.193359 71.720 66.9240
1823.310791 71.797 67.3437
1836.523193 71.874 67.7627
1849.831421 71.953 68.1789
1863.236084 72.033 68.5894
1876.737793 72.112 68.9932
1890.337524 72.192 69.3933
1904.035645 72.274 69.7937
1917.833008 72.356 70.1952
1931.730469 72.440 70.5966
1945.728638 72.526 70.9978
1959.828125 72.613 71.3986
1974.029907 72.701 71.7968
1988.334473 72.791 72.1905
2002.742798 72.883 72.5797
2017.255493 72.976 72.9651
2031.873291 73.071 73.3465
2046.597168 73.167 73.7233
2061.427734 73.265 74.0964
2076.365479 73.364 74.4677
2091.411865 73.463 74.8385
2106.566895 73.565 75.2077
2121.832031 73.667 75.5726
2137.207764 73.772 75.9307
2152.694824 73.878 76.2802
2168.294189 73.986 76.6198
2184.006592 74.095 76.9496
2199.832764 74.207 77.2703
2215.773682 74.320 77.5826
2231.830078 74.435 77.8869
2248.002686 74.551 78.1838
2264.292725 74.670 78.4741
2280.700684 74.790 78.7578
2297.227539 74.911 79.0326
2313.874268 75.034 79.2945
2330.641602 75.159 79.5416
2347.530273 75.287 79.7740
2364.541504 75.417 79.9924
2381.676025 75.549 80.1962
2398.934570 75.683 80.3841
2416.318359 75.818 80.5547
2433.827881 75.955 80.7082
2451.464355 76.094 80.8449
2469.228760 76.235 80.9643
2487.121826 76.378 81.0659
2505.144531 76.523 81.1495
2523.297852 76.669 81.2139
2541.582764 76.816 81.2564
2560.000000 76.964 81.2733
2578.550781 77.112 81.2618
2597.236084 77.259 81.2215
2616.056641 77.407 81.1523
2635.013672 77.554 81.0526
2654.108154 77.703 80.9194
2673.340820 77.853 80.7506
2692.713135 78.003 80.5457
2712.225586 78.154 80.3046
2731.879395 78.305 80.0281
2751.675781 78.454 79.7157
2771.615479 78.601 79.3654
2791.699707 78.747 78.9760
2811.929688 78.892 78.5476
2832.305908 79.035 78.0807
2852.830078 79.176 77.5758
2873.502930 79.312 77.0326
2894.325439 79.444 76.4504
2915.298828 79.571 75.8313
2936.424316 79.691 75.1785
2957.702881 79.806 74.4942
2979.135742 79.914 73.7796
3000.723633 80.015 73.0372
3022.468262 80.109 72.2709
3044.370117 80.194 71.4870
3066.430908 80.270 70.6922
3088.651611 80.338 69.8914
3111.033203 80.398 69.0887
3133.577148 80.448 68.2880
3156.284180 80.489 67.4932
3179.156006 80.521 66.7117
3202.193359 80.545 65.9536
3225.397949 80.562 65.2291
3248.770508 80.574 64.5448
3272.312500 80.581 63.9029
3296.024902 80.586 63.3012
3319.909180 80.591 62.7335
3343.966797 80.598 62.1880
3368.198486 80.608 61.6475
3392.605713 80.620 61.0921
3417.189941 80.634 60.5025
3441.952393 80.646 59.8640
3466.894287 80.653 59.1695
3492.016846 80.651 58.4217
3517.321289 80.638 57.6312
3542.809326 80.614 56.8132
3568.481934 80.577 55.9854
3594.340576 80.529 55.1661
3620.386719 80.470 54.3727
3646.621582 80.403 53.6187
3673.046387 80.329 52.9134
3699.662842 80.249 52.2623
3726.472168 80.164 51.6685
3753.475586 80.074 51.1325
3780.675049 79.979 50.6519
3808.071289 79.881 50.2227
3835.666016 79.779 49.8413
3863.460938 79.675 49.5040
3891.457275 79.568 49.2079
3919.656250 79.460 48.9530
3948.059814 79.351 48.7410
3976.668945 79.239 48.5740
4005.485596 79.125 48.4533
4034.510986 79.010 48.3790
4063.746582 78.892 48.3491
4093.194336 78.770 48.3602
4122.855469 78.646 48.4077
4152.730957 78.517 48.4875
4182.823730 78.386 48.5983
4213.133789 78.255 48.7395
4243.664062 78.124 48.9098
4274.415527 77.996 49.1059
4305.389648 77.872 49.3228
4336.588379 77.754 49.5549
4368.013184 77.641 49.7992
4399.665527 77.535 50.0554
4431.547363 77.434 50.3270
4463.660156 77.337 50.6197
4496.005371 77.244 50.9394
4528.585449 77.152 51.2923
4561.401367 77.061 51.6854
4594.455078 76.972 52.1248
4627.748535 76.885 52.6146
4661.283203 76.800 53.1544
4695.060547 76.719 53.7389
4729.083008 76.643 54.3606
4763.352051 76.571 55.0123
4797.869141 76.506 55.6875
4832.636719 76.447 56.3791
4867.655762 76.394 57.0787
4902.928711 76.346 57.7790
4938.457520 76.303 58.4752
4974.243652 76.264 59.1649
5010.289062 76.228 59.8488
5046.595703 76.196 60.5294
5083.165527 76.167 61.2091
5120.000000 76.140 61.8898
5157.101562 76.117 62.5740
5194.472168 76.096 63.2627
5232.113281 76.077 63.9533
5270.027344 76.058 64.6419
5308.216309 76.037 65.3268
5346.681641 76.015 66.0101
5385.426270 75.992 66.6965
5424.451172 75.971 67.3899
5463.758789 75.951 68.0913
5503.351562 75.934 68.8003
5543.230957 75.922 69.5159
5583.399414 75.914 70.2381
5623.859375 75.909 70.9686
5664.611816 75.907 71.7088
5705.660156 75.909 72.4595
5747.005859 75.915 73.2189
5788.650879 75.925 73.9815
5830.597656 75.939 74.7398
5872.848633 75.958 75.4869
5915.405762 75.982 76.2162
5958.271484 76.012 76.9221
6001.447266 76.049 77.6018
6044.936523 76.095 78.2536
6088.740234 76.149 78.8763
6132.861816 76.210 79.4687
6177.303223 76.277 80.0294
6222.066406 76.349 80.5567
6267.154297 76.425 81.0490
6312.568359 76.504 81.5024
6358.312012 76.587 81.9108
6404.386719 76.675 82.2674
6450.795898 76.767 82.5663
6497.541016 76.863 82.8025
6544.625000 76.962 82.9724
6592.049805 77.063 83.0735
6639.818359 77.167 83.1022
6687.933594 77.272 83.0549
6736.396973 77.378 82.9288
6785.211426 77.484 82.7218
6834.379883 77.585 82.4313
6883.904785 77.682 82.0522
6933.788574 77.771 81.5774
6984.033691 77.852 81.0006
7034.642578 77.922 80.3199
7085.618652 77.980 79.5372
7136.963867 78.024 78.6576
7188.681152 78.054 77.6895
7240.773438 78.072 76.6441
7293.243164 78.076 75.5354
7346.092773 78.066 74.3776
7399.325684 78.041 73.1826
7452.944336 78.000 71.9597
7506.951172 77.944 70.7175
7561.350098 77.876 69.4622
7616.142578 77.799 68.1944
7671.332031 77.719 66.9073
7726.921875 77.639 65.5844
7782.914551 77.559 64.1993
7839.312500 77.478 62.7176
7896.119629 77.389 61.0973
7953.337891 77.283 59.2970
8010.971191 77.148 57.2909
8069.021973 76.970 55.0865
8127.493164 76.735 52.7346
8186.388672 76.430 50.3291
8245.710938 76.050 47.9968
8305.461914 75.594 45.8773
8365.647461 75.069 44.1020
8426.267578 74.487 42.7733
8487.328125 73.864 41.9509
8548.831055 73.213 41.6471
8610.779297 72.549 41.8322
8673.176758 71.882 42.4499
8736.026367 71.223 43.4379
8799.331055 70.583 44.7412
8863.094727 69.972 46.3148
8927.320312 69.395 48.1201
8992.010742 68.851 50.1219
9057.170898 68.337 52.2906
9122.802734 67.849 54.6044
9188.910156 67.387 57.0514
9255.497070 66.950 59.6277
9322.566406 66.537 62.3325
9390.121094 66.145 65.1563
9458.166016 65.771 68.0743
9526.704102 65.413 71.0555
9595.738281 65.073 74.0762
9665.273438 64.752 77.1241
9735.311523 64.448 80.1929
9805.857422 64.160 83.2801
9876.915039 63.883 86.3852
9948.487305 63.618 89.5098
10020.578125 63.366 92.6570
10093.191406 63.128 95.8299
10166.331055 62.907 99.0365
10240.000000 62.704 102.2856
10314.203125 62.520 105.5756
10388.944336 62.353 108.8951
10464.226562 62.198 112.2353
10540.054688 62.052 115.5943
10616.432617 61.910 118.9711
10693.363281 61.774 122.3658
10770.852539 61.649 125.7812
10848.902344 61.539 129.2170
10927.517578 61.446 132.6694
11006.703125 61.371 136.1331
11086.461914 61.312 139.6079
11166.798828 61.270 143.1006
11247.718750 61.243 146.6127
11329.223633 61.232 150.1332
11411.320312 61.232 153.6476
11494.011719 61.243 157.1452
11577.301758 61.266 160.6190
11661.195312 61.306 164.0614
11745.697266 61.364 167.4647
11830.811523 61.440 170.8257
11916.542969 61.534 174.1460
12002.894531 61.641 177.4225
12089.873047 61.764 -179.3581
12177.480469 61.902 -176.2084
12265.723633 62.058 -173.1215
12354.606445 62.233 -170.0783
12444.132812 62.425 -167.0666
12534.308594 62.635 -164.0842
12625.136719 62.861 -161.1354
12716.624023 63.106 -158.2289
12808.773438 63.374 -155.3778
12901.591797 63.665 -152.6003
12995.082031 63.975 -149.9161
13089.250000 64.296 -147.3474
13184.099609 64.622 -144.9207
13279.636719 64.947 -142.6639
13375.867188 65.270 -140.6026
13472.793945 65.596 -138.7601
13570.422852 65.933 -137.1581
13668.759766 66.290 -135.8224
13767.809570 66.680 -134.7899
13867.577148 67.105 -134.1079
13968.067383 67.567 -133.8286
14069.285156 68.054 -134.0086
14171.237305 68.554 -134.7090
14273.927734 69.044 -135.9880
14377.362305 69.502 -137.8890
14481.546875 69.904 -140.4212
14586.486328 70.222 -143.5384
14692.185547 70.434 -147.1236
14798.651367 70.523 -150.9899
14905.888672 70.480 -154.9060
15013.902344 70.305 -158.6390
15122.700195 70.007 -161.9932
15232.285156 69.593 -164.8328
15342.664062 69.075 -167.0875
15453.843750 68.464 -168.7421
15565.829102 67.775 -169.8226
15678.625000 67.031 -170.3804
15792.239258 66.263 -170.4813
15906.675781 65.510 -170.1945
16021.942383 64.807 -169.5827
16138.043945 64.184 -168.7004
16254.986328 63.656 -167.5992
16372.777344 63.224 -166.3312
16491.421875 62.881 -164.9511
16610.923828 62.616 -163.5211
16731.294922 62.419 -162.1106
16852.535156 62.278 -160.7899
16974.656250 62.184 -159.6320
17097.662109 62.136 -158.7216
17221.558594 62.130 -158.1506
17346.353516 62.154 -158.0065
17472.052734 62.189 -158.3686
17598.662109 62.203 -159.3043
17726.189453 62.163 -160.8581
17854.640625 62.042 -163.0229
17984.021484 61.815 -165.7022
18114.341797 61.463 -168.6984
18245.605469 60.973 -171.7315
18377.820312 60.346 -174.4843
18510.994141 59.593 -176.6702
18645.132812 58.738 -178.0965
18780.242188 57.808 -178.6772
18916.332031 56.834 -178.3986
19053.408203 55.845 -177.2937
19191.476562 54.856 -175.4380
19330.546875 53.849 -172.9187
19470.623047 52.779 -169.8131
19611.714844 51.645 -166.3876
19753.830078 50.593 -163.2974
19896.974609 49.843 -161.1361
