* Measurement data measured by REW V5.20.5
* Source: IEF Neutral Target IEM Filtered
* Format: 
* Dated: 2022/05/26 17:59:58
* REW Settings:
*  C-weighting compensation: Off
*  Target level: -3.6 dB
* Note: 
* Measurement: Rohsa 1.1A Target
* Smoothing: 1/12 octave
* Frequency Step: 1/48 octave
* Start Frequency: 19.500 Hz
*
* Freq(Hz) SPL(dB)
19.500000 74.982
19.750000 74.982
20.000000 74.982
20.299999 74.982
20.600000 74.982
20.900000 74.982
21.200001 74.982
21.400000 74.982
21.799999 74.982
22.000000 74.982
22.400000 74.982
22.700001 74.982
23.000000 74.982
23.299999 74.982
23.600000 74.982
24.000000 74.982
24.299999 74.982
24.700001 74.982
25.000000 74.982
25.400000 74.982
25.799999 74.982
26.200001 74.982
26.500000 74.982
26.900000 74.982
27.200001 74.982
27.600000 74.982
28.000000 74.982
28.500000 74.982
29.000000 74.982
29.500000 74.982
30.000000 74.982
30.400000 74.982
30.700001 74.982
31.100000 74.982
31.500000 74.982
32.000000 74.982
32.500000 74.982
33.000000 74.982
33.500000 74.982
34.000000 74.982
34.500000 74.982
35.000000 74.982
35.500000 74.982
36.000000 74.982
36.500000 74.982
37.000000 74.982
37.500000 74.982
38.200001 74.982
38.700001 74.982
39.500000 74.982
40.000000 74.982
40.599998 74.982
41.200001 74.982
41.799999 74.982
42.500000 74.982
43.099998 74.982
43.700001 74.982
44.400002 74.982
45.000000 74.982
45.500000 74.982
46.200001 74.982
46.799999 74.982
47.500000 74.982
48.200001 74.982
48.700001 74.982
49.400002 74.982
50.000000 74.982
50.799999 74.982
51.500000 74.982
52.200001 74.982
53.000000 74.982
53.799999 74.982
54.500000 74.982
55.200001 74.982
56.000000 74.982
57.000000 74.982
58.000000 74.982
59.000000 74.982
60.000000 74.982
60.799999 74.982
61.500000 74.982
62.200001 74.982
63.000000 74.982
64.000000 74.982
65.000000 74.982
66.000000 74.982
67.000000 74.982
68.000000 74.982
69.000000 74.982
70.000000 74.982
71.000000 74.982
72.000000 74.982
73.000000 74.982
74.000000 74.982
75.000000 74.982
76.199997 74.982
77.500000 74.982
78.800003 74.982
80.000000 74.982
81.199997 74.982
82.500000 74.982
83.800003 74.982
85.000000 74.982
86.199997 74.982
87.500000 74.982
88.500000 74.982
90.000000 74.982
91.199997 74.982
92.500000 74.982
93.800003 74.982
95.000000 74.982
96.199997 74.982
97.500000 74.982
98.800003 74.982
100.000000 74.982
101.500000 74.982
103.000000 74.982
104.400002 74.982
106.000000 74.983
107.500000 74.983
109.000000 74.983
110.599998 74.983
112.000000 74.983
113.800003 74.983
115.000000 74.983
117.199997 74.983
118.000000 74.983
120.599998 74.983
122.000000 74.983
124.099998 74.983
125.000000 74.983
126.500000 74.983
128.000000 74.983
131.500000 74.983
132.000000 74.983
134.000000 74.983
136.000000 74.983
138.000000 74.983
140.000000 74.983
143.000000 74.983
145.000000 74.983
147.500000 74.983
150.000000 74.983
152.500000 74.983
155.000000 74.983
157.500000 74.983
160.000000 74.983
162.500000 74.983
165.000000 74.983
167.500000 74.983
170.000000 74.983
172.500000 74.983
175.000000 74.983
177.500000 74.983
180.000000 74.983
182.500000 74.983
185.000000 74.983
187.500000 74.983
190.000000 74.984
192.500000 74.984
195.000000 74.984
197.500000 74.984
200.000000 74.984
203.000000 74.984
206.000000 74.984
209.000000 74.984
212.000000 74.984
214.000000 74.984
218.000000 74.984
220.000000 74.984
224.000000 74.984
227.000000 74.984
230.000000 74.984
233.000000 74.985
236.000000 74.985
240.000000 74.985
243.000000 74.985
247.000000 74.985
250.000000 74.985
254.000000 74.985
258.000000 74.985
262.000000 74.986
265.000000 74.986
269.000000 74.986
272.000000 74.986
276.000000 74.986
280.000000 74.986
285.000000 74.987
290.000000 74.987
295.000000 74.987
300.000000 74.987
304.000000 74.987
307.000000 74.988
311.000000 74.988
315.000000 74.988
320.000000 74.988
325.000000 74.989
330.000000 74.989
335.000000 74.989
340.000000 74.990
345.000000 74.990
350.000000 74.990
355.000000 74.991
360.000000 74.991
365.000000 74.991
370.000000 74.992
375.000000 74.992
382.000000 74.992
387.000000 74.993
395.000000 74.993
400.000000 74.994
406.000000 74.994
412.000000 74.995
418.000000 74.995
425.000000 74.996
431.000000 74.996
437.000000 74.996
444.000000 74.997
450.000000 74.997
455.000000 74.998
462.000000 74.998
468.000000 74.998
475.000000 74.999
482.000000 74.999
487.000000 74.999
494.000000 75.000
500.000000 75.000
508.000000 75.000
515.000000 75.001
522.000000 75.001
530.000000 75.001
538.000000 75.001
545.000000 75.001
552.000000 75.001
560.000000 75.002
570.000000 75.002
580.000000 75.003
590.000000 75.004
600.000000 75.005
608.000000 75.007
615.000000 75.008
622.000000 75.011
630.000000 75.014
640.000000 75.019
650.000000 75.026
660.000000 75.034
670.000000 75.044
680.000000 75.055
690.000000 75.069
700.000000 75.085
710.000000 75.103
720.000000 75.123
730.000000 75.144
740.000000 75.168
750.000000 75.193
762.000000 75.224
775.000000 75.261
788.000000 75.299
800.000000 75.335
812.000000 75.374
825.000000 75.422
838.000000 75.481
850.000000 75.545
862.000000 75.607
875.000000 75.667
885.000000 75.715
900.000000 75.794
912.000000 75.863
925.000000 75.939
938.000000 76.014
950.000000 76.085
962.000000 76.155
975.000000 76.226
988.000000 76.294
1000.000000 76.361
1015.000000 76.454
1030.000000 76.557
1044.000000 76.657
1060.000000 76.765
1075.000000 76.863
1090.000000 76.961
1106.000000 77.065
1120.000000 77.155
1138.000000 77.267
1150.000000 77.341
1172.000000 77.479
1180.000000 77.531
1206.000000 77.704
1220.000000 77.793
1241.000000 77.922
1250.000000 77.978
1265.000000 78.070
1280.000000 78.164
1315.000000 78.379
1320.000000 78.408
1340.000000 78.515
1360.000000 78.613
1380.000000 78.708
1400.000000 78.804
1430.000000 78.949
1450.000000 79.047
1475.000000 79.169
1500.000000 79.290
1525.000000 79.410
1550.000000 79.528
1575.000000 79.644
1600.000000 79.757
1625.000000 79.866
1650.000000 79.974
1675.000000 80.078
1700.000000 80.181
1725.000000 80.281
1750.000000 80.379
1775.000000 80.476
1800.000000 80.571
1825.000000 80.666
1850.000000 80.760
1875.000000 80.855
1900.000000 80.949
1925.000000 81.044
1950.000000 81.140
1975.000000 81.235
2000.000000 81.329
2030.000000 81.438
2060.000000 81.537
2090.000000 81.631
2120.000000 81.732
2140.000000 81.804
2180.000000 81.952
2200.000000 82.022
2240.000000 82.152
2270.000000 82.248
2300.000000 82.343
2330.000000 82.437
2360.000000 82.530
2400.000000 82.655
2430.000000 82.743
2470.000000 82.853
2500.000000 82.931
2540.000000 83.030
2580.000000 83.120
2620.000000 83.202
2650.000000 83.263
2690.000000 83.342
2720.000000 83.397
2760.000000 83.467
2800.000000 83.531
2850.000000 83.590
2900.000000 83.626
2950.000000 83.647
3000.000000 83.655
3040.000000 83.649
3070.000000 83.635
3110.000000 83.605
3150.000000 83.568
3200.000000 83.521
3250.000000 83.467
3300.000000 83.397
3350.000000 83.313
3400.000000 83.221
3450.000000 83.124
3500.000000 83.026
3550.000000 82.925
3600.000000 82.822
3650.000000 82.715
3700.000000 82.603
3750.000000 82.487
3820.000000 82.324
3870.000000 82.206
3950.000000 82.011
4000.000000 81.894
4060.000000 81.761
4120.000000 81.625
4180.000000 81.483
4250.000000 81.316
4310.000000 81.181
4370.000000 81.058
4440.000000 80.925
4500.000000 80.808
4550.000000 80.707
4620.000000 80.561
4680.000000 80.437
4750.000000 80.294
4820.000000 80.155
4870.000000 80.058
4940.000000 79.925
5000.000000 79.813
5080.000000 79.668
5150.000000 79.545
5220.000000 79.424
5300.000000 79.289
5380.000000 79.158
5450.000000 79.046
5520.000000 78.936
5600.000000 78.814
5700.000000 78.664
5800.000000 78.518
5900.000000 78.373
6000.000000 78.224
6080.000000 78.098
6150.000000 77.984
6220.000000 77.873
6300.000000 77.755
6400.000000 77.621
6500.000000 77.496
6600.000000 77.374
6700.000000 77.256
6800.000000 77.141
6900.000000 77.027
7000.000000 76.913
7100.000000 76.798
7200.000000 76.675
7300.000000 76.546
7400.000000 76.420
7500.000000 76.303
7620.000000 76.177
7750.000000 76.049
7880.000000 75.926
8000.000000 75.814
8120.000000 75.703
8250.000000 75.578
8380.000000 75.443
8500.000000 75.316
8620.000000 75.197
8750.000000 75.081
8850.000000 74.996
9000.000000 74.868
9120.000000 74.759
9250.000000 74.636
9380.000000 74.519
9500.000000 74.416
9620.000000 74.313
9750.000000 74.198
9880.000000 74.084
10000.000000 73.981
10150.000000 73.852
10300.000000 73.726
10440.000000 73.612
10600.000000 73.480
10750.000000 73.354
10900.000000 73.230
11060.000000 73.104
11200.000000 73.000
11380.000000 72.867
11500.000000 72.777
11720.000000 72.609
11800.000000 72.548
12060.000000 72.354
12200.000000 72.252
12410.000000 72.103
12500.000000 72.039
12650.000000 71.936
12800.000000 71.834
13150.000000 71.604
13200.000000 71.571
13400.000000 71.444
13600.000000 71.320
13800.000000 71.197
14000.000000 71.076
14300.000000 70.891
14500.000000 70.764
14750.000000 70.609
15000.000000 70.464
15250.000000 70.323
15500.000000 70.178
15750.000000 70.031
16000.000000 69.889
16250.000000 69.746
16500.000000 69.606
16750.000000 69.470
17000.000000 69.334
17250.000000 69.200
17500.000000 69.070
17750.000000 68.940
18000.000000 68.810
18250.000000 68.683
18500.000000 68.552
18750.000000 68.419
19000.000000 68.292
19250.000000 68.178
19500.000000 68.079
19750.000000 68.002
20000.000000 67.957
