* Measurement data measured by REW V5.20.9
* Source:
* Format:
* Dated: 2022/08/20 13:48:29
* REW Settings:
*  C-weighting compensation: Off
*  Target level: 75.0 dB
* Note:
* Measurement: SSP R
* Smoothing: 1/24 octave
* Frequency Step: 1/96 octave
* Start Frequency: 9.928 Hz
*
* Freq(Hz) SPL(dB) Phase(degrees)
9.928058 69.986 -30.0688
10.000000 70.004 -30.2909
10.072464 70.021 -30.5775
10.145453 70.039 -30.9334
10.218971 70.057 -31.3634
10.293022 70.080 -31.8835
10.367610 70.113 -32.5342
10.442738 70.149 -33.2702
10.518411 70.186 -34.0327
10.594631 70.223 -34.7604
10.671404 70.256 -35.4105
10.748734 70.287 -36.0233
10.826623 70.319 -36.6173
10.905077 70.351 -37.2079
10.984100 70.387 -37.8111
11.063695 70.428 -38.4266
11.143867 70.472 -39.0441
11.224621 70.518 -39.6679
11.305959 70.565 -40.3027
11.387886 70.610 -40.9537
11.470407 70.656 -41.6235
11.553527 70.702 -42.3058
11.637249 70.748 -42.9923
11.721577 70.794 -43.6748
11.806517 70.838 -44.3522
11.892071 70.882 -45.0291
11.978246 70.925 -45.7063
12.065045 70.970 -46.3848
12.152473 71.016 -47.0664
12.240536 71.063 -47.7513
12.329235 71.111 -48.4357
12.418578 71.158 -49.1160
12.508568 71.203 -49.7904
12.599211 71.246 -50.4628
12.690510 71.289 -51.1292
12.782471 71.331 -51.7848
12.875097 71.373 -52.4262
12.968395 71.412 -53.0568
13.062370 71.452 -53.6745
13.157025 71.493 -54.2769
13.252366 71.536 -54.8612
13.348398 71.580 -55.4278
13.445127 71.626 -55.9790
13.542556 71.674 -56.5171
13.640691 71.724 -57.0398
13.739536 71.776 -57.5460
13.839099 71.829 -58.0425
13.939383 71.883 -58.5359
14.040393 71.938 -59.0223
14.142136 71.993 -59.5024
14.244616 72.048 -59.9820
14.347837 72.102 -60.4648
14.451808 72.153 -60.9477
14.556532 72.204 -61.4315
14.662014 72.254 -61.9171
14.768262 72.302 -62.4057
14.875278 72.350 -62.8959
14.983070 72.398 -63.3854
15.091644 72.448 -63.8732
15.201005 72.500 -64.3604
15.311157 72.552 -64.8453
15.422109 72.604 -65.3261
15.533863 72.657 -65.8030
15.646428 72.709 -66.2763
15.759809 72.757 -66.7464
15.874010 72.800 -67.2124
15.989040 72.840 -67.6750
16.104904 72.878 -68.1359
16.221605 72.912 -68.5948
16.339155 72.944 -69.0515
16.457554 72.977 -69.5099
16.576813 73.013 -69.9706
16.696936 73.051 -70.4325
16.817928 73.089 -70.9021
16.939798 73.131 -71.3826
17.062551 73.174 -71.8714
17.186193 73.217 -72.3754
17.310732 73.258 -72.8989
17.436172 73.298 -73.4398
17.562521 73.335 -73.9984
17.689787 73.369 -74.5776
17.817974 73.399 -75.1758
17.947090 73.427 -75.7837
18.077143 73.451 -76.4020
18.208138 73.473 -77.0290
18.340080 73.495 -77.6520
18.472980 73.516 -78.2711
18.606844 73.537 -78.8867
18.741676 73.560 -79.4946
18.877487 73.585 -80.0936
19.014280 73.612 -80.6917
19.152065 73.641 -81.2928
19.290850 73.672 -81.8955
19.430639 73.705 -82.5107
19.571442 73.739 -83.1410
19.713264 73.773 -83.7840
19.856115 73.806 -84.4413
20.000000 73.839 -85.1146
20.144928 73.869 -85.7901
20.290907 73.896 -86.4670
20.437943 73.921 -87.1397
20.586044 73.943 -87.7900
20.735220 73.962 -88.4217
20.885475 73.983 -89.0259
21.036821 74.006 -89.5947
21.189262 74.033 -90.1374
21.342808 74.068 -90.6600
21.497467 74.110 -91.1611
21.653246 74.159 -91.6756
21.810154 74.217 -92.1989
21.968201 74.280 -92.7582
22.127390 74.346 -93.3730
22.287735 74.415 -94.0393
22.449242 74.481 -94.7719
22.611917 74.546 -95.5666
22.775772 74.603 -96.3956
22.940815 74.652 -97.2671
23.107054 74.690 -98.1291
23.274498 74.716 -98.9783
23.443153 74.731 -99.7811
23.613033 74.737 -100.5137
23.784142 74.737 -101.1749
23.956491 74.736 -101.7445
24.130091 74.736 -102.2354
24.304947 74.743 -102.6587
24.481071 74.756 -103.0224
24.658470 74.778 -103.3683
24.837156 74.807 -103.6963
25.017136 74.841 -104.0517
25.198421 74.882 -104.4315
25.381020 74.923 -104.8567
25.564941 74.965 -105.3246
25.750195 75.004 -105.8259
25.936790 75.039 -106.3584
26.124741 75.069 -106.8983
26.314051 75.094 -107.4448
26.504732 75.114 -107.9794
26.696796 75.130 -108.5039
26.890253 75.145 -109.0143
27.085112 75.158 -109.5149
27.281382 75.171 -110.0117
27.479073 75.184 -110.5099
27.678198 75.196 -111.0160
27.878765 75.208 -111.5332
28.080786 75.219 -112.0645
28.284271 75.230 -112.6091
28.489231 75.239 -113.1673
28.695675 75.248 -113.7358
28.903616 75.258 -114.3138
29.113064 75.267 -114.8974
29.324028 75.275 -115.4841
29.536524 75.283 -116.0708
29.750557 75.289 -116.6528
29.966141 75.294 -117.2282
30.183289 75.300 -117.7933
30.402010 75.307 -118.3488
30.622314 75.318 -118.8948
30.844217 75.333 -119.4363
31.067726 75.352 -119.9753
31.292856 75.373 -120.5185
31.519617 75.396 -121.0663
31.748020 75.419 -121.6209
31.978081 75.443 -122.1775
32.209808 75.467 -122.7332
32.443211 75.491 -123.2799
32.678310 75.514 -123.8124
32.915108 75.538 -124.3268
33.153625 75.562 -124.8219
33.393871 75.586 -125.3020
33.635857 75.612 -125.7704
33.879597 75.638 -126.2362
34.125103 75.665 -126.7027
34.372387 75.692 -127.1730
34.621464 75.719 -127.6467
34.872345 75.744 -128.1221
35.125042 75.767 -128.5978
35.379574 75.789 -129.0729
35.635948 75.809 -129.5486
35.894180 75.828 -130.0256
36.154285 75.844 -130.5053
36.416275 75.856 -130.9863
36.680161 75.865 -131.4665
36.945961 75.872 -131.9430
37.213688 75.876 -132.4129
37.483353 75.882 -132.8788
37.754974 75.890 -133.3452
38.028561 75.903 -133.8206
38.304131 75.920 -134.3168
38.581699 75.940 -134.8384
38.861279 75.958 -135.3860
39.142883 75.972 -135.9543
39.426529 75.979 -136.5291
39.712231 75.981 -137.0977
40.000000 75.979 -137.6516
40.289856 75.975 -138.1866
40.581814 75.971 -138.7060
40.875885 75.966 -139.2188
41.172089 75.961 -139.7324
41.470440 75.957 -140.2512
41.770950 75.954 -140.7756
42.073643 75.952 -141.3022
42.378525 75.953 -141.8254
42.685616 75.956 -142.3413
42.994934 75.961 -142.8472
43.306492 75.969 -143.3411
43.620308 75.979 -143.8213
43.936401 75.990 -144.2863
44.254780 76.003 -144.7371
44.575470 76.018 -145.1787
44.898483 76.035 -145.6200
45.223835 76.055 -146.0708
45.551544 76.075 -146.5386
45.881630 76.094 -147.0255
46.214108 76.110 -147.5289
46.548996 76.124 -148.0426
46.886307 76.135 -148.5614
47.226067 76.144 -149.0830
47.568283 76.151 -149.6071
47.912983 76.157 -150.1321
48.260181 76.161 -150.6537
48.609894 76.162 -151.1658
48.962143 76.160 -151.6650
49.316940 76.155 -152.1527
49.674313 76.149 -152.6357
50.034271 76.142 -153.1230
50.396843 76.135 -153.6210
50.762039 76.127 -154.1317
51.129883 76.117 -154.6512
51.500389 76.107 -155.1709
51.873581 76.096 -155.6782
52.249481 76.087 -156.1594
52.628101 76.083 -156.6051
53.009464 76.087 -157.0187
53.393593 76.100 -157.4207
53.780506 76.122 -157.8436
54.170223 76.148 -158.3164
54.562763 76.171 -158.8462
54.958145 76.185 -159.4121
55.356396 76.189 -159.9749
55.757530 76.183 -160.4985
56.161572 76.172 -160.9666
56.568542 76.158 -161.3839
56.978462 76.144 -161.7637
57.391350 76.129 -162.1156
57.807232 76.114 -162.4462
58.226128 76.103 -162.7704
58.648056 76.097 -163.1169
59.073048 76.097 -163.5194
59.501114 76.098 -163.9987
59.932281 76.096 -164.5488
60.366577 76.089 -165.1411
60.804020 76.075 -165.7403
61.244629 76.058 -166.3178
61.688435 76.038 -166.8525
62.135452 76.018 -167.3289
62.585712 76.002 -167.7417
63.039234 75.994 -168.1030
63.496040 75.995 -168.4416
63.956161 76.006 -168.7899
64.419617 76.021 -169.1620
64.886421 76.036 -169.5479
65.356621 76.049 -169.9286
65.830215 76.060 -170.2956
66.307251 76.070 -170.6587
66.787743 76.078 -171.0317
67.271713 76.079 -171.4166
67.759193 76.073 -171.8010
68.250206 76.061 -172.1704
68.744774 76.043 -172.5195
69.242928 76.022 -172.8535
69.744690 76.000 -173.1820
70.250084 75.980 -173.5141
70.759148 75.961 -173.8554
71.271896 75.944 -174.2059
71.788361 75.928 -174.5599
72.308571 75.915 -174.9104
72.832550 75.907 -175.2555
73.360321 75.905 -175.5995
73.891922 75.909 -175.9454
74.427376 75.918 -176.2881
74.966705 75.929 -176.6192
75.509949 75.942 -176.9354
76.057121 75.953 -177.2422
76.608261 75.960 -177.5465
77.163399 75.959 -177.8490
77.722557 75.951 -178.1465
78.285767 75.935 -178.4399
78.853058 75.913 -178.7333
79.424461 75.886 -179.0267
80.000000 75.854 -179.3147
80.579712 75.820 -179.5940
81.163628 75.788 -179.8698
81.751770 75.759 179.8491
82.344177 75.736 179.5603
82.940880 75.722 179.2704
83.541901 75.717 178.9841
84.147285 75.721 178.6978
84.757050 75.731 178.4073
85.371231 75.741 178.1213
85.989868 75.747 177.8593
86.612984 75.747 177.6434
87.240616 75.742 177.4915
87.872803 75.737 177.3979
88.509560 75.739 177.2933
89.150940 75.744 177.0610
89.796967 75.733 176.6482
90.447670 75.691 176.1422
91.103088 75.618 175.7040
91.763260 75.535 175.4097
92.428215 75.460 175.2192
93.097992 75.399 175.0625
93.772614 75.351 174.8990
94.452133 75.316 174.7127
95.136566 75.289 174.5035
95.825966 75.266 174.2876
96.520363 75.245 174.0785
97.219788 75.221 173.8756
97.924286 75.192 173.6831
98.633881 75.153 173.5281
99.348625 75.107 173.4396
100.068542 75.063 173.4131
100.793686 75.024 173.4186
101.524078 74.989 173.4441
102.259766 74.961 173.5032
103.000778 74.946 173.5944
103.747162 74.949 173.6784
104.498962 74.965 173.7064
105.256203 74.987 173.6581
106.018929 75.006 173.5532
106.787186 75.016 173.4329
107.561012 75.020 173.3270
108.340446 75.018 173.2404
109.125526 75.013 173.1699
109.916290 75.006 173.1152
110.712791 75.002 173.0626
111.515060 75.004 172.9771
112.323143 75.012 172.8273
113.137085 75.021 172.6088
113.956924 75.030 172.3401
114.782700 75.035 172.0464
115.614464 75.038 171.7472
116.452255 75.037 171.4495
117.296112 75.032 171.1527
118.146095 75.022 170.8538
119.002228 75.004 170.5566
119.864563 74.981 170.2770
120.733154 74.954 170.0295
121.608040 74.930 169.8118
122.489258 74.909 169.6199
123.376869 74.896 169.4633
124.270905 74.893 169.3339
125.171425 74.901 169.1853
126.078468 74.910 168.9793
126.992081 74.912 168.7309
127.912323 74.904 168.4760
128.839233 74.887 168.2227
129.772842 74.862 167.9586
130.713242 74.832 167.6857
131.660431 74.797 167.4230
132.614502 74.765 167.1797
133.575485 74.741 166.9393
134.543427 74.722 166.6812
135.518387 74.704 166.4116
136.500412 74.684 166.1612
137.489548 74.661 165.9422
138.485855 74.635 165.7351
139.489380 74.603 165.5300
140.500168 74.567 165.3428
141.518295 74.532 165.1813
142.543793 74.505 165.0262
143.576721 74.487 164.8552
144.617142 74.474 164.6672
145.665100 74.463 164.4751
146.720642 74.450 164.2880
147.783844 74.430 164.1102
148.854752 74.402 163.9453
149.933411 74.368 163.7916
151.019897 74.332 163.6389
152.114243 74.298 163.4747
153.216522 74.269 163.2970
154.326797 74.246 163.1157
155.445114 74.227 162.9418
156.571533 74.209 162.7813
157.706116 74.188 162.6350
158.848923 74.162 162.4979
160.000000 74.129 162.3594
161.159424 74.094 162.2108
162.327255 74.058 162.0535
163.503540 74.027 161.8944
164.688354 74.002 161.7368
165.881760 73.981 161.5794
167.083801 73.961 161.4218
168.294571 73.935 161.2686
169.514099 73.903 161.1260
170.742462 73.866 160.9949
171.979736 73.829 160.8699
173.225967 73.795 160.7467
174.481232 73.766 160.6265
175.745605 73.740 160.5111
177.019119 73.713 160.3989
178.301880 73.684 160.2842
179.593933 73.651 160.1626
180.895340 73.614 160.0363
182.206177 73.576 159.9127
183.526520 73.539 159.7974
184.856430 73.503 159.6909
186.195984 73.466 159.5889
187.545227 73.426 159.4863
188.904266 73.382 159.3796
190.273132 73.334 159.2680
191.651932 73.287 159.1552
193.040726 73.245 159.0454
194.439575 73.211 158.9398
195.848572 73.182 158.8401
197.267761 73.153 158.7516
198.697250 73.122 158.6758
200.137085 73.087 158.6063
201.587372 73.051 158.5344
203.048157 73.016 158.4546
204.519531 72.983 158.3688
206.001556 72.952 158.2830
207.494324 72.922 158.1993
208.997925 72.889 158.1144
210.512405 72.855 158.0264
212.037857 72.822 157.9384
213.574371 72.791 157.8540
215.122025 72.763 157.7758
216.680893 72.735 157.7058
218.251053 72.704 157.6458
219.832581 72.667 157.5943
221.425583 72.627 157.5461
223.030121 72.586 157.4957
224.646286 72.546 157.4412
226.274170 72.508 157.3837
227.913849 72.470 157.3259
229.565399 72.429 157.2740
231.228928 72.386 157.2346
232.904510 72.345 157.2076
234.592224 72.306 157.1856
236.292191 72.269 157.1622
238.004456 72.231 157.1374
239.729126 72.193 157.1170
241.466309 72.154 157.1061
243.216080 72.117 157.1064
244.978516 72.082 157.1187
246.753738 72.048 157.1439
248.541809 72.012 157.1807
250.342850 71.976 157.2235
252.156937 71.941 157.2627
253.984161 71.907 157.2905
255.824646 71.874 157.3057
257.678467 71.841 157.3117
259.545685 71.806 157.3130
261.426483 71.770 157.3123
263.320862 71.735 157.3083
265.229004 71.703 157.2986
267.150970 71.672 157.2860
269.086853 71.639 157.2802
271.036774 71.605 157.2895
273.000824 71.569 157.3099
274.979095 71.532 157.3241
276.971710 71.492 157.3201
278.978760 71.451 157.3055
281.000336 71.411 157.2964
283.036591 71.373 157.3009
285.087585 71.336 157.3179
287.153442 71.298 157.3441
289.234283 71.259 157.3756
291.330200 71.219 157.4084
293.441284 71.180 157.4425
295.567688 71.141 157.4825
297.709503 71.101 157.5331
299.866821 71.059 157.5929
302.039795 71.016 157.6569
304.228485 70.974 157.7244
306.433044 70.934 157.8003
308.653595 70.895 157.8884
310.890228 70.854 157.9832
313.143066 70.812 158.0708
315.412231 70.771 158.1397
317.697845 70.733 158.1919
320.000000 70.697 158.2401
322.318848 70.663 158.2961
324.654510 70.626 158.3661
327.007080 70.587 158.4545
329.376709 70.545 158.5595
331.763519 70.504 158.6707
334.167603 70.463 158.7777
336.589142 70.425 158.8806
339.028198 70.390 158.9884
341.484924 70.357 159.1080
343.959473 70.324 159.2347
346.451935 70.289 159.3616
348.962463 70.252 159.4894
351.491211 70.211 159.6198
354.038239 70.167 159.7489
356.603760 70.120 159.8737
359.187866 70.071 159.9970
361.790680 70.026 160.1233
364.412354 69.986 160.2613
367.053040 69.951 160.4234
369.712860 69.917 160.6054
372.391968 69.881 160.7785
375.090454 69.842 160.9176
377.808533 69.801 161.0282
380.546265 69.761 161.1364
383.303864 69.721 161.2637
386.081451 69.681 161.4156
388.879150 69.643 161.5856
391.697144 69.608 161.7638
394.535522 69.574 161.9414
397.394501 69.540 162.1142
400.274170 69.504 162.2824
403.174744 69.467 162.4489
406.096313 69.429 162.6168
409.039062 69.390 162.7890
412.003113 69.351 162.9673
414.988647 69.313 163.1514
417.995850 69.276 163.3414
421.024811 69.242 163.5381
424.075714 69.208 163.7426
427.148743 69.175 163.9557
430.244049 69.141 164.1767
433.361786 69.105 164.4028
436.502106 69.068 164.6311
439.665161 69.030 164.8596
442.851166 68.991 165.0872
446.060242 68.953 165.3128
449.292572 68.916 165.5369
452.548340 68.881 165.7597
455.827698 68.849 165.9807
459.130798 68.819 166.2000
462.457855 68.788 166.4202
465.809021 68.755 166.6474
469.184448 68.721 166.8846
472.584381 68.688 167.1262
476.008911 68.656 167.3646
479.458252 68.625 167.6024
482.932617 68.593 167.8516
486.432159 68.561 168.1184
489.957031 68.527 168.3980
493.507477 68.493 168.6822
497.083618 68.457 168.9642
500.685699 68.421 169.2404
504.313873 68.385 169.5126
507.968323 68.352 169.7856
511.649292 68.319 170.0627
515.356934 68.286 170.3456
519.091370 68.254 170.6361
522.852966 68.223 170.9352
526.641724 68.194 171.2428
530.458008 68.166 171.5569
534.301941 68.140 171.8733
538.173706 68.115 172.1884
542.073547 68.088 172.5025
546.001648 68.058 172.8190
549.958191 68.026 173.1405
553.943420 67.992 173.4681
557.957520 67.958 173.8029
562.000671 67.928 174.1474
566.073181 67.901 174.4997
570.175171 67.876 174.8536
574.306885 67.852 175.2064
578.468567 67.826 175.5624
582.660400 67.799 175.9243
586.882568 67.770 176.2885
591.135376 67.741 176.6519
595.419006 67.711 177.0173
599.733643 67.681 177.3900
604.079590 67.652 177.7739
608.456970 67.624 178.1695
612.866089 67.598 178.5748
617.307190 67.572 178.9854
621.780457 67.549 179.3942
626.286133 67.527 179.7984
630.824463 67.507 -179.7963
635.395691 67.487 -179.3845
640.000000 67.466 -178.9655
644.637695 67.445 -178.5379
649.309021 67.423 -178.1014
654.014160 67.402 -177.6608
658.753418 67.383 -177.2224
663.527039 67.365 -176.7878
668.335205 67.348 -176.3502
673.178284 67.332 -175.9012
678.056396 67.315 -175.4377
682.969849 67.298 -174.9620
687.918945 67.281 -174.4811
692.903870 67.262 -174.0014
697.924927 67.244 -173.5235
702.982422 67.226 -173.0435
708.076477 67.208 -172.5569
713.207520 67.192 -172.0628
718.375732 67.178 -171.5641
723.581360 67.166 -171.0630
728.824707 67.157 -170.5587
734.106079 67.148 -170.0507
739.425720 67.140 -169.5401
744.783936 67.131 -169.0271
750.180908 67.124 -168.5113
755.617065 67.117 -167.9922
761.092529 67.112 -167.4695
766.607727 67.108 -166.9426
772.162903 67.104 -166.4112
777.758301 67.101 -165.8735
783.394287 67.099 -165.3271
789.071045 67.097 -164.7711
794.789001 67.097 -164.2083
800.548340 67.097 -163.6457
806.349487 67.098 -163.0900
812.192627 67.099 -162.5425
818.078125 67.099 -161.9983
824.006226 67.101 -161.4521
829.977295 67.104 -160.9020
835.991699 67.107 -160.3503
842.049622 67.112 -159.8011
848.151428 67.117 -159.2560
854.297485 67.122 -158.7111
860.488098 67.130 -158.1621
866.723572 67.139 -157.6083
873.004211 67.150 -157.0525
879.330322 67.162 -156.4981
885.702332 67.175 -155.9454
892.120483 67.187 -155.3931
898.585144 67.197 -154.8403
905.096680 67.208 -154.2870
911.655396 67.219 -153.7335
918.261597 67.232 -153.1772
924.915710 67.247 -152.6129
931.618042 67.262 -152.0375
938.368896 67.278 -151.4528
945.168762 67.293 -150.8645
952.017822 67.307 -150.2756
958.916504 67.323 -149.6823
965.865234 67.339 -149.0795
972.864319 67.357 -148.4645
979.914062 67.378 -147.8358
987.014954 67.401 -147.1968
994.167236 67.428 -146.5547
1001.371399 67.457 -145.9156
1008.627747 67.490 -145.2787
1015.936646 67.525 -144.6399
1023.298584 67.563 -143.9991
1030.713867 67.604 -143.3608
1038.182739 67.648 -142.7284
1045.705933 67.693 -142.1028
1053.283447 67.739 -141.4853
1060.916016 67.787 -140.8788
1068.603882 67.836 -140.2870
1076.347412 67.888 -139.7113
1084.147095 67.942 -139.1504
1092.003296 67.998 -138.6033
1099.916382 68.057 -138.0705
1107.886841 68.119 -137.5538
1115.915039 68.183 -137.0556
1124.001343 68.249 -136.5766
1132.146362 68.317 -136.1158
1140.350342 68.384 -135.6731
1148.613770 68.450 -135.2471
1156.937134 68.515 -134.8344
1165.320801 68.578 -134.4333
1173.765137 68.640 -134.0451
1182.270752 68.701 -133.6709
1190.838013 68.760 -133.3096
1199.467285 68.819 -132.9579
1208.159180 68.877 -132.6123
1216.913940 68.934 -132.2708
1225.732178 68.990 -131.9330
1234.614380 69.046 -131.5997
1243.560913 69.102 -131.2727
1252.572266 69.160 -130.9519
1261.648926 69.221 -130.6349
1270.791382 69.284 -130.3194
1280.000000 69.351 -130.0046
1289.275391 69.420 -129.6901
1298.618042 69.489 -129.3750
1308.028320 69.556 -129.0585
1317.506836 69.621 -128.7409
1327.054077 69.683 -128.4229
1336.670410 69.743 -128.1041
1346.356567 69.802 -127.7835
1356.112793 69.861 -127.4617
1365.939697 69.918 -127.1396
1375.837891 69.974 -126.8168
1385.807739 70.027 -126.4909
1395.849854 70.079 -126.1599
1405.964844 70.130 -125.8246
1416.152954 70.181 -125.4869
1426.415039 70.233 -125.1479
1436.751465 70.284 -124.8076
1447.162720 70.335 -124.4676
1457.649414 70.385 -124.1276
1468.212158 70.436 -123.7842
1478.851440 70.488 -123.4350
1489.567871 70.542 -123.0810
1500.361816 70.597 -122.7238
1511.234131 70.652 -122.3633
1522.185059 70.707 -121.9985
1533.215454 70.762 -121.6288
1544.325806 70.818 -121.2549
1555.516602 70.874 -120.8783
1566.788574 70.931 -120.4991
1578.142090 70.987 -120.1172
1589.578003 71.044 -119.7337
1601.096680 71.101 -119.3491
1612.698975 71.158 -118.9623
1624.385254 71.217 -118.5727
1636.156250 71.276 -118.1818
1648.012451 71.336 -117.7913
1659.954590 71.397 -117.4007
1671.983398 71.458 -117.0071
1684.099243 71.520 -116.6088
1696.302856 71.584 -116.2069
1708.594971 71.651 -115.8041
1720.976196 71.718 -115.4012
1733.447144 71.787 -114.9975
1746.008423 71.856 -114.5919
1758.660645 71.925 -114.1838
1771.404663 71.994 -113.7734
1784.240967 72.064 -113.3617
1797.170288 72.135 -112.9490
1810.193359 72.207 -112.5360
1823.310791 72.280 -112.1241
1836.523193 72.355 -111.7147
1849.831421 72.432 -111.3076
1863.236084 72.511 -110.9009
1876.737793 72.590 -110.4928
1890.337524 72.670 -110.0833
1904.035645 72.751 -109.6740
1917.833008 72.834 -109.2674
1931.730469 72.918 -108.8651
1945.728638 73.004 -108.4663
1959.828125 73.092 -108.0680
1974.029907 73.182 -107.6700
1988.334473 73.274 -107.2756
2002.742798 73.367 -106.8883
2017.255493 73.462 -106.5082
2031.873291 73.557 -106.1334
2046.597168 73.654 -105.7627
2061.427734 73.752 -105.3966
2076.365479 73.851 -105.0351
2091.411865 73.952 -104.6770
2106.566895 74.055 -104.3213
2121.832031 74.159 -103.9688
2137.207764 74.265 -103.6218
2152.694824 74.373 -103.2818
2168.294189 74.482 -102.9502
2184.006592 74.594 -102.6279
2199.832764 74.707 -102.3155
2215.773682 74.822 -102.0131
2231.830078 74.939 -101.7194
2248.002686 75.057 -101.4335
2264.292725 75.177 -101.1559
2280.700684 75.299 -100.8881
2297.227539 75.421 -100.6312
2313.874268 75.546 -100.3862
2330.641602 75.672 -100.1544
2347.530273 75.801 -99.9373
2364.541504 75.932 -99.7360
2381.676025 76.066 -99.5512
2398.934570 76.201 -99.3831
2416.318359 76.338 -99.2319
2433.827881 76.477 -99.0980
2451.464355 76.618 -98.9812
2469.228760 76.761 -98.8816
2487.121826 76.905 -98.8003
2505.144531 77.052 -98.7387
2523.297852 77.199 -98.6979
2541.582764 77.348 -98.6801
2560.000000 77.498 -98.6886
2578.550781 77.647 -98.7272
2597.236084 77.796 -98.7978
2616.056641 77.945 -98.9012
2635.013672 78.093 -99.0382
2654.108154 78.243 -99.2100
2673.340820 78.394 -99.4178
2692.713135 78.546 -99.6627
2712.225586 78.698 -99.9453
2731.879395 78.850 -100.2654
2751.675781 79.000 -100.6224
2771.615479 79.149 -101.0169
2791.699707 79.297 -101.4504
2811.929688 79.443 -101.9250
2832.305908 79.587 -102.4418
2852.830078 79.728 -103.0008
2873.502930 79.865 -103.6004
2894.325439 79.998 -104.2392
2915.298828 80.124 -104.9164
2936.424316 80.245 -105.6312
2957.702881 80.360 -106.3829
2979.135742 80.467 -107.1712
3000.723633 80.568 -107.9952
3022.468262 80.661 -108.8524
3044.370117 80.745 -109.7390
3066.430908 80.820 -110.6499
3088.651611 80.886 -111.5799
3111.033203 80.942 -112.5234
3133.577148 80.989 -113.4746
3156.284180 81.026 -114.4275
3179.156006 81.053 -115.3763
3202.193359 81.070 -116.3158
3225.397949 81.076 -117.2399
3248.770508 81.072 -118.1402
3272.312500 81.059 -119.0086
3296.024902 81.037 -119.8407
3319.909180 81.008 -120.6377
3343.966797 80.971 -121.4037
3368.198486 80.927 -122.1431
3392.605713 80.876 -122.8586
3417.189941 80.819 -123.5495
3441.952393 80.756 -124.2122
3466.894287 80.688 -124.8424
3492.016846 80.615 -125.4370
3517.321289 80.535 -125.9932
3542.809326 80.452 -126.5069
3568.481934 80.365 -126.9733
3594.340576 80.275 -127.3897
3620.386719 80.185 -127.7556
3646.621582 80.094 -128.0732
3673.046387 80.004 -128.3474
3699.662842 79.916 -128.5850
3726.472168 79.831 -128.7919
3753.475586 79.748 -128.9729
3780.675049 79.668 -129.1326
3808.071289 79.590 -129.2742
3835.666016 79.513 -129.4016
3863.460938 79.436 -129.5194
3891.457275 79.359 -129.6316
3919.656250 79.280 -129.7395
3948.059814 79.199 -129.8420
3976.668945 79.115 -129.9355
4005.485596 79.027 -130.0153
4034.510986 78.934 -130.0764
4063.746582 78.836 -130.1131
4093.194336 78.732 -130.1194
4122.855469 78.623 -130.0902
4152.730957 78.508 -130.0229
4182.823730 78.391 -129.9191
4213.133789 78.271 -129.7838
4243.664062 78.149 -129.6226
4274.415527 78.027 -129.4383
4305.389648 77.909 -129.2316
4336.588379 77.796 -129.0031
4368.013184 77.689 -128.7564
4399.665527 77.588 -128.4973
4431.547363 77.494 -128.2275
4463.660156 77.406 -127.9422
4496.005371 77.323 -127.6346
4528.585449 77.246 -127.3002
4561.401367 77.173 -126.9401
4594.455078 77.103 -126.5610
4627.748535 77.035 -126.1718
4661.283203 76.969 -125.7792
4695.060547 76.902 -125.3862
4729.083008 76.834 -124.9927
4763.352051 76.764 -124.5968
4797.869141 76.692 -124.1960
4832.636719 76.616 -123.7857
4867.655762 76.536 -123.3576
4902.928711 76.452 -122.9009
4938.457520 76.365 -122.4051
4974.243652 76.276 -121.8614
5010.289062 76.185 -121.2632
5046.595703 76.096 -120.6056
5083.165527 76.009 -119.8832
5120.000000 75.928 -119.0898
5157.101562 75.855 -118.2218
5194.472168 75.790 -117.2825
5232.113281 75.735 -116.2841
5270.027344 75.685 -115.2467
5308.216309 75.641 -114.1923
5346.681641 75.599 -113.1391
5385.426270 75.562 -112.0975
5424.451172 75.529 -111.0708
5463.758789 75.502 -110.0588
5503.351562 75.481 -109.0597
5543.230957 75.465 -108.0723
5583.399414 75.453 -107.0985
5623.859375 75.444 -106.1390
5664.611816 75.435 -105.1916
5705.660156 75.428 -104.2518
5747.005859 75.421 -103.3161
5788.650879 75.415 -102.3827
5830.597656 75.409 -101.4520
5872.848633 75.402 -100.5237
5915.405762 75.396 -99.5969
5958.271484 75.392 -98.6702
6001.447266 75.392 -97.7427
6044.936523 75.397 -96.8134
6088.740234 75.409 -95.8807
6132.861816 75.427 -94.9428
6177.303223 75.452 -93.9981
6222.066406 75.482 -93.0475
6267.154297 75.517 -92.0954
6312.568359 75.558 -91.1498
6358.312012 75.604 -90.2202
6404.386719 75.658 -89.3158
6450.795898 75.718 -88.4440
6497.541016 75.784 -87.6105
6544.625000 75.855 -86.8182
6592.049805 75.932 -86.0688
6639.818359 76.013 -85.3635
6687.933594 76.100 -84.7041
6736.396973 76.192 -84.0939
6785.211426 76.287 -83.5383
6834.379883 76.385 -83.0440
6883.904785 76.483 -82.6169
6933.788574 76.581 -82.2623
6984.033691 76.677 -81.9840
7034.642578 76.771 -81.7841
7085.618652 76.862 -81.6641
7136.963867 76.949 -81.6241
7188.681152 77.033 -81.6667
7240.773438 77.114 -81.7971
7293.243164 77.191 -82.0201
7346.092773 77.262 -82.3359
7399.325684 77.324 -82.7387
7452.944336 77.375 -83.2192
7506.951172 77.417 -83.7690
7561.350098 77.449 -84.3815
7616.142578 77.476 -85.0517
7671.332031 77.501 -85.7756
7726.921875 77.527 -86.5528
7782.914551 77.556 -87.3939
7839.312500 77.588 -88.3280
7896.119629 77.621 -89.4025
7953.337891 77.649 -90.6737
8010.971191 77.660 -92.1929
8069.021973 77.643 -93.9916
8127.493164 77.583 -96.0681
8186.388672 77.464 -98.3801
8245.710938 77.274 -100.8443
8305.461914 77.006 -103.3417
8365.647461 76.657 -105.7324
8426.267578 76.229 -107.8763
8487.328125 75.730 -109.6523
8548.831055 75.170 -110.9710
8610.779297 74.561 -111.7820
8673.176758 73.919 -112.0742
8736.026367 73.258 -111.8701
8799.331055 72.597 -111.2160
8863.094727 71.948 -110.1695
8927.320312 71.322 -108.7852
8992.010742 70.723 -107.1085
9057.170898 70.149 -105.1771
9122.802734 69.600 -103.0262
9188.910156 69.077 -100.6902
9255.497070 68.579 -98.1998
9322.566406 68.106 -95.5795
9390.121094 67.657 -92.8479
9458.166016 67.227 -90.0234
9526.704102 66.817 -87.1264
9595.738281 66.426 -84.1749
9665.273438 66.056 -81.1797
9735.311523 65.706 -78.1444
9805.857422 65.373 -75.0681
9876.915039 65.053 -71.9519
9948.487305 64.744 -68.8005
10020.578125 64.450 -65.6180
10093.191406 64.171 -62.4013
10166.331055 63.910 -59.1429
10240.000000 63.668 -55.8387
10314.203125 63.446 -52.4917
10388.944336 63.241 -49.1106
10464.226562 63.049 -45.7029
10540.054688 62.864 -42.2752
10616.432617 62.683 -38.8350
10693.363281 62.507 -35.3802
10770.852539 62.340 -31.8940
10848.902344 62.190 -28.3593
10927.517578 62.059 -24.7731
11006.703125 61.947 -21.1474
11086.461914 61.852 -17.4995
11166.798828 61.773 -13.8386
11247.718750 61.709 -10.1680
11329.223633 61.658 -6.4922
11411.320312 61.619 -2.8168
11494.011719 61.591 0.8526
11577.301758 61.574 4.5079
11661.195312 61.572 8.1351
11745.697266 61.586 11.7231
11830.811523 61.616 15.2731
11916.542969 61.662 18.7906
12002.894531 61.721 22.2739
12089.873047 61.794 25.7138
12177.480469 61.880 29.1001
12265.723633 61.983 32.4333
12354.606445 62.104 35.7248
12444.132812 62.242 38.9881
12534.308594 62.397 42.2312
12625.136719 62.566 45.4547
12716.624023 62.749 48.6554
12808.773438 62.950 51.8276
12901.591797 63.169 54.9593
12995.082031 63.405 58.0293
13089.250000 63.648 61.0122
13184.099609 63.891 63.8855
13279.636719 64.128 66.6303
13375.867188 64.360 69.2321
13472.793945 64.590 71.6866
13570.422852 64.825 73.9950
13668.759766 65.077 76.1488
13767.809570 65.360 78.1244
13867.577148 65.680 79.8908
13968.067383 66.044 81.4140
14069.285156 66.448 82.6549
14171.237305 66.885 83.5671
14273.927734 67.345 84.0950
14377.362305 67.814 84.1772
14481.546875 68.277 83.7557
14586.486328 68.716 82.7873
14692.185547 69.107 81.2593
14798.651367 69.430 79.2042
14905.888672 69.662 76.7030
15013.902344 69.787 73.8800
15122.700195 69.791 70.8945
15232.285156 69.664 67.9249
15342.664062 69.399 65.1450
15453.843750 68.999 62.7003
15565.829102 68.473 60.6904
15678.625000 67.846 59.1621
15792.239258 67.149 58.1235
15906.675781 66.427 57.5683
16021.942383 65.721 57.4890
16138.043945 65.070 57.8659
16254.986328 64.495 58.6464
16372.777344 64.001 59.7471
16491.421875 63.585 61.0821
16610.923828 63.239 62.5921
16731.294922 62.957 64.2381
16852.535156 62.731 65.9746
16974.656250 62.557 67.7405
17097.662109 62.437 69.4640
17221.558594 62.377 71.0629
17346.353516 62.377 72.4408
17472.052734 62.424 73.4839
17598.662109 62.498 74.0571
17726.189453 62.577 74.0072
17854.640625 62.639 73.1911
17984.021484 62.655 71.5234
18114.341797 62.591 69.0274
18245.605469 62.411 65.8599
18377.820312 62.084 62.2978
18510.994141 61.592 58.6988
18645.132812 60.931 55.4400
18780.242188 60.113 52.8521
18916.332031 59.164 51.1756
19053.408203 58.122 50.5355
19191.476562 57.027 50.9370
19330.546875 55.909 52.2847
19470.623047 54.783 54.4100
19611.714844 53.665 57.0657
19753.830078 52.611 59.8480
19896.974609 51.767 62.1356
