* Measurement data measured by REW V5.20.4
* Source:
* Format:
* Dated: 2021/12/25 19:43:35
* REW Settings:
*  C-weighting compensation: Off
*  Target level: 18.8 dB
* Note: 
* Measurement: Variations S2
* Smoothing: 1/24 octave
* Frequency Step: 1/48 octave
* Start Frequency: 20.000 Hz
*
* Freq(Hz) SPL(dB) Phase(degrees)
20.000000 95.511 -154.8657
20.299999 95.522 -155.6875
20.600000 95.531 -156.4927
20.900000 95.538 -157.2795
21.200001 95.542 -158.0456
21.400000 95.544 -158.5433
21.799999 95.546 -159.5036
22.000000 95.547 -159.9657
22.400000 95.548 -160.8573
22.700001 95.551 -161.5052
23.000000 95.554 -162.1444
23.299999 95.558 -162.7819
23.600000 95.561 -163.4214
24.000000 95.561 -164.2746
24.299999 95.558 -164.9074
24.700001 95.550 -165.7293
25.000000 95.541 -166.3242
25.400000 95.529 -167.0889
25.799999 95.516 -167.8292
26.200001 95.504 -168.5560
26.500000 95.495 -169.0967
26.900000 95.482 -169.8136
27.200001 95.471 -170.3479
27.600000 95.456 -171.0539
28.000000 95.438 -171.7491
28.500000 95.414 -172.5943
29.000000 95.388 -173.4022
29.500000 95.363 -174.1710
30.000000 95.342 -174.9150
30.400000 95.327 -175.5056
30.700001 95.317 -175.9501
31.100000 95.302 -176.5438
31.500000 95.285 -177.1327
32.000000 95.261 -177.8508
32.500000 95.235 -178.5422
33.000000 95.208 -179.2063
33.500000 95.181 -179.8438
34.000000 95.154 179.5433
34.500000 95.127 178.9477
35.000000 95.102 178.3577
35.500000 95.076 177.7652
36.000000 95.048 177.1723
36.500000 95.017 176.5888
37.000000 94.984 176.0248
37.500000 94.949 175.4854
38.200001 94.901 174.7676
38.700001 94.869 174.2714
39.500000 94.822 173.4789
40.000000 94.793 172.9754
40.599998 94.756 172.3661
41.200001 94.716 171.7628
41.799999 94.674 171.1746
42.500000 94.623 170.5111
43.099998 94.579 169.9633
43.700001 94.534 169.4377
44.400002 94.481 168.8514
45.000000 94.438 168.3659
45.500000 94.402 167.9697
46.200001 94.352 167.4266
46.799999 94.310 166.9712
47.500000 94.262 166.4474
48.200001 94.215 165.9268
48.700001 94.180 165.5554
49.400002 94.131 165.0366
50.000000 94.087 164.5974
50.799999 94.025 164.0328
51.500000 93.971 163.5654
52.200001 93.917 163.1180
53.000000 93.858 162.6205
53.799999 93.800 162.1317
54.500000 93.751 161.7083
55.200001 93.701 161.2854
56.000000 93.644 160.8027
57.000000 93.569 160.2120
58.000000 93.493 159.6489
59.000000 93.417 159.1148
60.000000 93.341 158.6035
60.799999 93.281 158.2061
61.500000 93.228 157.8674
62.200001 93.174 157.5416
63.000000 93.113 157.1879
64.000000 93.036 156.7689
65.000000 92.960 156.3650
66.000000 92.884 155.9682
67.000000 92.807 155.5781
68.000000 92.728 155.2023
69.000000 92.650 154.8434
70.000000 92.573 154.4944
71.000000 92.498 154.1490
72.000000 92.422 153.8067
73.000000 92.346 153.4718
74.000000 92.270 153.1490
75.000000 92.194 152.8411
76.199997 92.102 152.4925
77.500000 92.003 152.1359
78.800003 91.905 151.7959
80.000000 91.814 151.4976
81.199997 91.722 151.2200
82.500000 91.624 150.9392
83.800003 91.525 150.6695
85.000000 91.433 150.4342
86.199997 91.341 150.2163
87.500000 91.242 149.9984
88.500000 91.167 149.8422
90.000000 91.054 149.6268
91.199997 90.965 149.4698
92.500000 90.868 149.3156
93.800003 90.773 149.1778
95.000000 90.686 149.0615
96.199997 90.600 148.9510
97.500000 90.506 148.8375
98.800003 90.412 148.7359
100.000000 90.324 148.6575
101.500000 90.215 148.5832
103.000000 90.106 148.5345
104.400002 90.007 148.5087
106.000000 89.895 148.4986
107.500000 89.793 148.5042
109.000000 89.693 148.5231
110.599998 89.586 148.5599
112.000000 89.493 148.6078
113.800003 89.373 148.6912
115.000000 89.294 148.7582
117.199997 89.152 148.8951
118.000000 89.101 148.9495
120.599998 88.938 149.1507
122.000000 88.852 149.2777
124.099998 88.725 149.4950
125.000000 88.671 149.5972
126.500000 88.582 149.7775
128.000000 88.494 149.9684
131.500000 88.292 150.4563
132.000000 88.264 150.5315
134.000000 88.153 150.8452
136.000000 88.047 151.1779
138.000000 87.944 151.5296
140.000000 87.845 151.8980
143.000000 87.703 152.4666
145.000000 87.611 152.8493
147.500000 87.500 153.3388
150.000000 87.396 153.8573
152.500000 87.296 154.4081
155.000000 87.201 154.9799
157.500000 87.109 155.5593
160.000000 87.021 156.1405
162.500000 86.938 156.7299
165.000000 86.858 157.3336
167.500000 86.783 157.9529
170.000000 86.712 158.5817
172.500000 86.646 159.2107
175.000000 86.584 159.8361
177.500000 86.525 160.4583
180.000000 86.472 161.0786
182.500000 86.423 161.6980
185.000000 86.378 162.3151
187.500000 86.337 162.9286
190.000000 86.300 163.5391
192.500000 86.267 164.1454
195.000000 86.237 164.7435
197.500000 86.211 165.3318
200.000000 86.188 165.9120
203.000000 86.165 166.5992
206.000000 86.145 167.2748
209.000000 86.129 167.9352
212.000000 86.116 168.5794
214.000000 86.108 169.0009
218.000000 86.096 169.8276
220.000000 86.092 170.2332
224.000000 86.087 171.0273
227.000000 86.087 171.6061
230.000000 86.090 172.1683
233.000000 86.094 172.7133
236.000000 86.101 173.2424
240.000000 86.112 173.9241
243.000000 86.123 174.4163
247.000000 86.139 175.0459
250.000000 86.153 175.4990
254.000000 86.175 176.0824
258.000000 86.198 176.6473
262.000000 86.222 177.1939
265.000000 86.240 177.5892
269.000000 86.266 178.0943
272.000000 86.286 178.4569
276.000000 86.314 178.9216
280.000000 86.343 179.3672
285.000000 86.380 179.8987
290.000000 86.416 -179.5945
295.000000 86.451 -179.1098
300.000000 86.485 -178.6496
304.000000 86.512 -178.2990
307.000000 86.533 -178.0457
311.000000 86.561 -177.7202
315.000000 86.588 -177.4085
320.000000 86.623 -177.0380
325.000000 86.657 -176.6876
330.000000 86.692 -176.3552
335.000000 86.726 -176.0401
340.000000 86.760 -175.7397
345.000000 86.792 -175.4490
350.000000 86.823 -175.1657
355.000000 86.852 -174.8924
360.000000 86.880 -174.6323
365.000000 86.907 -174.3830
370.000000 86.933 -174.1410
375.000000 86.959 -173.9070
382.000000 86.995 -173.5956
387.000000 87.019 -173.3837
395.000000 87.059 -173.0601
400.000000 87.084 -172.8683
406.000000 87.112 -172.6472
412.000000 87.139 -172.4314
418.000000 87.165 -172.2182
425.000000 87.193 -171.9744
431.000000 87.216 -171.7703
437.000000 87.238 -171.5719
444.000000 87.262 -171.3477
450.000000 87.282 -171.1606
455.000000 87.298 -171.0073
462.000000 87.321 -170.7956
468.000000 87.339 -170.6156
475.000000 87.360 -170.4064
482.000000 87.381 -170.1987
487.000000 87.395 -170.0517
494.000000 87.414 -169.8480
500.000000 87.430 -169.6762
508.000000 87.452 -169.4507
515.000000 87.469 -169.2532
522.000000 87.485 -169.0522
530.000000 87.502 -168.8176
538.000000 87.518 -168.5812
545.000000 87.531 -168.3747
552.000000 87.543 -168.1685
560.000000 87.558 -167.9338
570.000000 87.575 -167.6405
580.000000 87.592 -167.3411
590.000000 87.608 -167.0330
600.000000 87.623 -166.7177
608.000000 87.635 -166.4632
615.000000 87.645 -166.2393
622.000000 87.655 -166.0137
630.000000 87.667 -165.7526
640.000000 87.682 -165.4206
650.000000 87.698 -165.0825
660.000000 87.714 -164.7384
670.000000 87.730 -164.3869
680.000000 87.746 -164.0250
690.000000 87.762 -163.6531
700.000000 87.778 -163.2721
710.000000 87.795 -162.8828
720.000000 87.813 -162.4870
730.000000 87.832 -162.0858
740.000000 87.852 -161.6790
750.000000 87.874 -161.2666
762.000000 87.902 -160.7629
775.000000 87.937 -160.2072
788.000000 87.975 -159.6447
800.000000 88.014 -159.1215
812.000000 88.056 -158.5947
825.000000 88.106 -158.0187
838.000000 88.159 -157.4416
850.000000 88.212 -156.9133
862.000000 88.269 -156.3906
875.000000 88.336 -155.8310
885.000000 88.390 -155.4062
900.000000 88.475 -154.7814
912.000000 88.547 -154.2948
925.000000 88.628 -153.7845
938.000000 88.713 -153.2975
950.000000 88.795 -152.8718
962.000000 88.881 -152.4699
975.000000 88.976 -152.0625
988.000000 89.075 -151.6854
1000.000000 89.168 -151.3651
1015.000000 89.287 -151.0040
1030.000000 89.407 -150.6892
1044.000000 89.519 -150.4369
1060.000000 89.648 -150.1950
1075.000000 89.768 -150.0108
1090.000000 89.887 -149.8661
1106.000000 90.014 -149.7583
1120.000000 90.125 -149.7079
1138.000000 90.263 -149.7034
1150.000000 90.353 -149.7339
1172.000000 90.511 -149.8432
1180.000000 90.566 -149.8963
1206.000000 90.737 -150.1083
1220.000000 90.824 -150.2448
1241.000000 90.948 -150.4736
1250.000000 90.998 -150.5788
1265.000000 91.078 -150.7613
1280.000000 91.154 -150.9503
1315.000000 91.316 -151.4005
1320.000000 91.337 -151.4650
1340.000000 91.419 -151.7216
1360.000000 91.496 -151.9729
1380.000000 91.568 -152.2164
1400.000000 91.638 -152.4519
1430.000000 91.737 -152.7876
1450.000000 91.800 -152.9968
1475.000000 91.875 -153.2406
1500.000000 91.947 -153.4646
1525.000000 92.017 -153.6701
1550.000000 92.085 -153.8591
1575.000000 92.152 -154.0329
1600.000000 92.219 -154.1919
1625.000000 92.285 -154.3372
1650.000000 92.352 -154.4718
1675.000000 92.420 -154.5975
1700.000000 92.488 -154.7152
1725.000000 92.557 -154.8261
1750.000000 92.627 -154.9326
1775.000000 92.698 -155.0375
1800.000000 92.771 -155.1434
1825.000000 92.845 -155.2512
1850.000000 92.921 -155.3623
1875.000000 92.999 -155.4783
1900.000000 93.078 -155.6001
1925.000000 93.159 -155.7282
1950.000000 93.241 -155.8643
1975.000000 93.324 -156.0103
2000.000000 93.409 -156.1684
2030.000000 93.511 -156.3761
2060.000000 93.615 -156.6037
2090.000000 93.721 -156.8537
2120.000000 93.829 -157.1293
2140.000000 93.902 -157.3289
2180.000000 94.050 -157.7679
2200.000000 94.124 -158.0074
2240.000000 94.273 -158.5284
2270.000000 94.386 -158.9581
2300.000000 94.498 -159.4232
2330.000000 94.610 -159.9254
2360.000000 94.721 -160.4655
2400.000000 94.868 -161.2446
2430.000000 94.976 -161.8731
2470.000000 95.116 -162.7690
2500.000000 95.218 -163.4835
2540.000000 95.348 -164.4933
2580.000000 95.471 -165.5681
2620.000000 95.588 -166.7040
2650.000000 95.671 -167.5942
2690.000000 95.774 -168.8296
2720.000000 95.846 -169.7896
2760.000000 95.934 -171.1092
2800.000000 96.010 -172.4668
2850.000000 96.088 -174.2066
2900.000000 96.149 -175.9834
2950.000000 96.194 -177.7814
3000.000000 96.222 -179.5861
3040.000000 96.233 178.9739
3070.000000 96.234 177.9000
3110.000000 96.227 176.4797
3150.000000 96.211 175.0750
3200.000000 96.180 173.3431
3250.000000 96.136 171.6379
3300.000000 96.083 169.9525
3350.000000 96.020 168.2761
3400.000000 95.947 166.6030
3450.000000 95.860 164.9404
3500.000000 95.756 163.3111
3550.000000 95.633 161.7484
3600.000000 95.491 160.2901
3650.000000 95.334 158.9710
3700.000000 95.167 157.8128
3750.000000 94.996 156.8184
3820.000000 94.759 155.6731
3870.000000 94.597 154.9987
3950.000000 94.354 154.1007
4000.000000 94.211 153.6233
4060.000000 94.046 153.1197
4120.000000 93.889 152.6879
4180.000000 93.739 152.3247
4250.000000 93.576 151.9781
4310.000000 93.446 151.7337
4370.000000 93.327 151.5219
4440.000000 93.199 151.2971
4500.000000 93.099 151.1100
4550.000000 93.021 150.9501
4620.000000 92.918 150.7116
4680.000000 92.834 150.4892
4750.000000 92.739 150.2045
4820.000000 92.645 149.8914
4870.000000 92.577 149.6517
4940.000000 92.479 149.2975
5000.000000 92.391 148.9811
5080.000000 92.264 148.5496
5150.000000 92.144 148.1747
5220.000000 92.014 147.8168
5300.000000 91.853 147.4487
5380.000000 91.678 147.1465
5450.000000 91.514 146.9546
5520.000000 91.342 146.8462
5600.000000 91.137 146.8419
5700.000000 90.869 147.0420
5800.000000 90.593 147.4965
5900.000000 90.314 148.2245
6000.000000 90.038 149.2349
6080.000000 89.826 150.2464
6150.000000 89.651 151.2779
6220.000000 89.487 152.4435
6300.000000 89.318 153.9345
6400.000000 89.137 156.0219
6500.000000 88.999 158.3334
6600.000000 88.909 160.8383
6700.000000 88.875 163.5011
6800.000000 88.908 166.2798
6900.000000 89.017 169.1179
7000.000000 89.216 171.9355
7100.000000 89.514 174.6230
7200.000000 89.920 177.0355
7300.000000 90.433 178.9887
7400.000000 91.044 -179.7507
7500.000000 91.722 -179.4503
7620.000000 92.556 179.2927
7750.000000 93.362 175.6410
7880.000000 93.915 169.7552
8000.000000 94.099 163.1385
8120.000000 93.945 156.5952
8250.000000 93.457 150.8589
8380.000000 92.767 147.2166
8500.000000 92.084 145.6752
8620.000000 91.464 145.4719
8750.000000 90.938 146.1582
8850.000000 90.658 146.9319
9000.000000 90.431 147.8800
9120.000000 90.373 148.0375
9250.000000 90.367 147.3036
9380.000000 90.339 145.5633
9500.000000 90.230 143.2535
9620.000000 90.000 140.6575
9750.000000 89.608 138.0656
9880.000000 89.091 136.1870
10000.000000 88.550 135.2969
10150.000000 87.860 135.2699
10300.000000 87.222 136.1223
10440.000000 86.699 137.3539
10600.000000 86.186 138.9528
10750.000000 85.765 140.4595
10900.000000 85.382 141.8943
11060.000000 84.989 143.3364
11200.000000 84.638 144.5856
11380.000000 84.161 146.3782
11500.000000 83.829 147.8242
11720.000000 83.251 151.0829
11800.000000 83.067 152.3806
12060.000000 82.572 156.3092
12200.000000 82.319 158.0623
12410.000000 81.867 160.5707
12500.000000 81.642 161.7819
12650.000000 81.245 164.1414
12800.000000 80.853 166.9180
13150.000000 80.078 174.1594
13200.000000 79.982 175.2049
13400.000000 79.617 179.3584
13600.000000 79.267 -176.4736
13800.000000 78.924 -172.2123
14000.000000 78.593 -167.8024
14300.000000 78.130 -160.7890
14500.000000 77.868 -155.7958
14750.000000 77.627 -149.2259
15000.000000 77.517 -142.4290
15250.000000 77.566 -135.6257
15500.000000 77.782 -129.0637
15750.000000 78.157 -122.9844
16000.000000 78.667 -117.6005
16250.000000 79.283 -113.1078
16500.000000 79.965 -109.7413
16750.000000 80.653 -107.8131
17000.000000 81.255 -107.6332
17250.000000 81.663 -109.3287
17500.000000 81.771 -112.6794
17750.000000 81.493 -117.0554
18000.000000 80.771 -121.4598
18250.000000 79.577 -124.5946
18500.000000 77.903 -124.9044
18750.000000 75.770 -120.8567
19000.000000 73.265 -111.9965
19250.000000 70.607 -100.2311
19500.000000 68.138 -89.0938
19750.000000 66.181 -81.1723
